File: desktop/XRD_data/Chemin-CSV/cma_408288091rda01220050926ch11520p1_berylQuartz3-97_2.csv
#2-THETA,#INTENSITY
3,378
3.2,272
3.4,232
3.6,229
3.8,189
4,197
4.2,242
4.4,139
4.6,184
4.8,193
5,190
5.2,187
5.4,232
5.6,220
5.8,370
6,375
6.2,705
6.4,967
6.6,1068
6.8,770
7,418
7.2,283
7.4,227
7.6,164
7.8,150
8,171
8.2,201
8.4,177
8.6,175
8.8,154
9,189
9.2,135
9.4,192
9.6,147
9.8,143
10,177
10.2,151
10.4,169
10.6,149
10.8,156
11,159
11.2,198
11.4,190
11.6,410
11.8,360
12,245
12.2,254
12.4,264
12.6,398
12.8,7810
13,5779
13.2,381
13.4,244
13.6,236
13.8,165
14,164
14.2,148
14.4,174
14.6,174
14.8,133
15,221
15.2,201
15.4,205
15.6,206
15.8,208
16,254
16.2,274
16.4,248
16.6,312
16.8,267
17,292
17.2,218
17.4,254
17.6,245
17.8,246
18,261
18.2,227
18.4,254
18.6,198
18.8,276
19,222
19.2,301
19.4,268
19.6,261
19.8,254
20,267
20.2,277
20.4,315
20.6,256
20.8,259
21,262
21.2,291
21.4,306
21.6,265
21.8,277
22,302
22.2,567
22.4,2799
22.6,1388
22.8,350
23,303
23.2,266
23.4,344
23.6,351
23.8,304
24,296
24.2,313
24.4,332
24.6,261
24.8,304
25,254
25.2,302
25.4,408
25.6,452
25.8,1558
26,3094
26.2,932
26.4,264
26.6,270
26.8,267
27,237
27.2,248
27.4,224
27.6,242
27.8,244
28,260
28.2,220
28.4,244
28.6,249
28.8,372
29,316
29.2,210
29.4,227
29.6,251
29.8,254
30,258
30.2,256
30.4,265
30.6,280
30.8,293
31,421
31.2,428
31.4,283
31.6,391
31.8,2940
32,4634
32.2,1249
32.4,271
32.6,292
32.8,349
33,349
33.2,236
33.4,244
33.6,246
33.8,221
34,207
34.2,260
34.4,853
34.6,1637
34.8,759
35,265
35.2,217
35.4,250
35.6,221
35.8,273
36,270
36.2,1450
36.4,4685
36.6,2979
36.8,390
37,224
37.2,171
37.4,202
37.6,205
37.8,186
38,206
38.2,177
38.4,174
38.6,196
38.8,162
39,155
39.2,162
39.4,224
39.6,191
39.8,157
40,144
40.2,159
40.4,145
40.6,156
40.8,171
41,176
41.2,197
41.4,481
41.6,1337
41.8,908
42,232
42.2,168
42.4,176
42.6,176
42.8,178
43,143
43.2,160
43.4,139
43.6,158
43.8,153
44,192
44.2,148
44.4,178
44.6,168
44.8,127
45,164
45.2,163
45.4,175
45.6,172
45.8,374
46,430
46.2,226
46.4,184
46.6,143
46.8,169
47,146
47.2,150
47.4,178
47.6,191
47.8,330
48,318
48.2,202
48.4,149
48.6,137
48.8,195
49,217
49.2,694
49.4,590
49.6,204
49.8,146
50,168
50.2,170
50.4,140
50.6,180
50.8,196
51,182
51.2,185
51.4,158
51.6,327
51.8,370
51.95,252