File: desktop/XRD_data/Chemin-CSV/cma_414856883rda01960060000ch12240p1_JohnKlein1.csv
#2-THETA,#INTENSITY
3,7335
3.2,7175
3.4,6346
3.6,5277
3.8,5952
4,4853
4.2,3885
4.4,4123
4.6,3308
4.8,3863
5,3264
5.2,3319
5.4,3248
5.6,3185
5.8,3016
6,2953
6.2,2893
6.4,2692
6.6,2622
6.8,2670
7,2496
7.2,2731
7.4,2612
7.6,2842
7.8,2658
8,2539
8.2,2622
8.4,2735
8.6,2435
8.8,2955
9,2405
9.2,2575
9.4,2446
9.6,2494
9.8,2588
10,2819
10.2,2764
10.4,2660
10.6,2408
10.8,2274
11,2079
11.2,1753
11.4,1632
11.6,1738
11.8,1486
12,1482
12.2,1581
12.4,1457
12.6,1655
12.8,1428
13,1561
13.2,1585
13.4,1316
13.6,1628
13.8,1481
14,1435
14.2,1529
14.4,1575
14.6,1546
14.8,1529
15,1535
15.2,1507
15.4,1526
15.6,1791
15.8,2047
16,2360
16.2,1653
16.4,1694
16.6,1573
16.8,1704
17,2266
17.2,1734
17.4,1783
17.6,1922
17.8,1942
18,1910
18.2,1915
18.4,1916
18.6,1985
18.8,2041
19,1963
19.2,2033
19.4,1826
19.6,1823
19.8,1950
20,1903
20.2,1855
20.4,1828
20.6,1784
20.8,1824
21,1757
21.2,2276
21.4,1967
21.6,1907
21.8,1949
22,2106
22.2,2226
22.4,2676
22.6,2551
22.8,2252
23,2397
23.2,2609
23.4,2325
23.6,2161
23.8,2293
24,2152
24.2,2140
24.4,2169
24.6,2150
24.8,2217
25,2369
25.2,2607
25.4,4861
25.6,5574
25.8,2671
26,2208
26.2,2409
26.4,2723
26.6,3086
26.8,2485
27,2159
27.2,2374
27.4,4168
27.6,4344
27.8,2800
28,2359
28.2,3001
28.4,3490
28.6,2526
28.8,2210
29,2359
29.2,2754
29.4,3514
29.6,4429
29.8,3479
30,2707
30.2,2611
30.4,2288
30.6,2809
30.8,3056
31,3068
31.2,2757
31.4,2428
31.6,2569
31.8,2993
32,4682
32.2,8697
32.4,9599
32.6,7556
32.8,4001
33,3398
33.2,2976
33.4,1999
33.6,2035
33.8,2079
34,2108
34.2,2575
34.4,4244
34.6,5177
34.8,3995
35,3791
35.2,4188
35.4,3506
35.6,3324
35.8,3608
36,3653
36.2,2407
36.4,2320
36.6,3032
36.8,2535
37,2551
37.2,2651
37.4,2483
37.6,2118
37.8,1912
38,1751
38.2,1917
38.4,1919
38.6,2094
38.8,1608
39,1719
39.2,1817
39.4,2002
39.6,1968
39.8,2065
40,1973
40.2,2151
40.4,2338
40.6,3043
40.8,3251
41,3006
41.2,4329
41.4,6915
41.6,6188
41.8,3803
42,3158
42.2,3221
42.4,2814
42.6,2340
42.8,2053
43,1787
43.2,1763
43.4,1840
43.6,1877
43.8,1703
44,1639
44.2,1724
44.4,1615
44.6,1569
44.8,1722
45,1621
45.2,1820
45.4,1628
45.6,1721
45.8,1866
46,1892
46.2,1876
46.4,1668
46.6,1693
46.8,1625
47,1515
47.2,1456
47.4,1938
47.6,1890
47.8,1915
48,1772
48.2,1630
48.4,1709
48.6,1570
48.8,1668
49,1765
49.2,1754
49.4,2206
49.6,2016
49.8,2012
50,1926
50.2,1749
50.4,1858
50.6,1954
50.8,1667
51,1362
51.2,1490
51.4,1256
51.6,1428
51.8,1628
51.95,1493