File: desktop/XRD_data/Chemin-CSV/cma_414856883rda01960060000ch12240p2_JohnKlein2.csv
#2-THETA,#INTENSITY
3,8733
3.2,7835
3.4,6606
3.6,5190
3.8,5799
4,4827
4.2,4116
4.4,3939
4.6,3369
4.8,3724
5,3036
5.2,2972
5.4,2989
5.6,2774
5.8,2917
6,2710
6.2,2711
6.4,2478
6.6,2545
6.8,2516
7,2493
7.2,2485
7.4,2405
7.6,2516
7.8,2484
8,2532
8.2,2528
8.4,2550
8.6,2280
8.8,2531
9,2284
9.2,2450
9.4,2308
9.6,2418
9.8,2429
10,2548
10.2,2452
10.4,2402
10.6,2148
10.8,2182
11,1826
11.2,1547
11.4,1576
11.6,1520
11.8,1464
12,1375
12.2,1395
12.4,1436
12.6,1433
12.8,1415
13,1427
13.2,1364
13.4,1428
13.6,1441
13.8,1442
14,1423
14.2,1425
14.4,1375
14.6,1298
14.8,1346
15,1434
15.2,1384
15.4,1430
15.6,1487
15.8,1966
16,2110
16.2,1672
16.4,1549
16.6,1453
16.8,1614
17,2070
17.2,1729
17.4,1623
17.6,1778
17.8,1696
18,1638
18.2,1757
18.4,1753
18.6,1774
18.8,1800
19,1740
19.2,1836
19.4,1724
19.6,1757
19.8,1757
20,1747
20.2,1650
20.4,1678
20.6,1645
20.8,1693
21,1691
21.2,2007
21.4,1871
21.6,1730
21.8,1792
22,1942
22.2,2057
22.4,2501
22.6,2393
22.8,2180
23,2265
23.2,2342
23.4,2117
23.6,1980
23.8,2063
24,1958
24.2,2008
24.4,1955
24.6,1962
24.8,2080
25,2146
25.2,2353
25.4,4648
25.6,5149
25.8,2402
26,2000
26.2,2164
26.4,2529
26.6,2766
26.8,2247
27,1993
27.2,2210
27.4,3820
27.6,4119
27.8,2550
28,2177
28.2,2753
28.4,3098
28.6,2293
28.8,2059
29,2172
29.2,2508
29.4,3599
29.6,4338
29.8,3285
30,2634
30.2,2315
30.4,2129
30.6,2492
30.8,2845
31,2719
31.2,2533
31.4,2342
31.6,2315
31.8,2801
32,4427
32.2,8479
32.4,9607
32.6,7236
32.8,3753
33,3124
33.2,2748
33.4,1885
33.6,1839
33.8,1868
34,1981
34.2,2281
34.4,3969
34.6,4705
34.8,3581
35,3313
35.2,3781
35.4,3247
35.6,3030
35.8,3386
36,3258
36.2,2172
36.4,2232
36.6,2833
36.8,2397
37,2380
37.2,2573
37.4,2381
37.6,1917
37.8,1674
38,1637
38.2,1809
38.4,1794
38.6,1827
38.8,1564
39,1575
39.2,1658
39.4,1802
39.6,1766
39.8,1773
40,1815
40.2,1844
40.4,2116
40.6,2673
40.8,3023
41,2691
41.2,3754
41.4,6429
41.6,5686
41.8,3485
42,2799
42.2,2876
42.4,2596
42.6,2093
42.8,1980
43,1737
43.2,1573
43.4,1737
43.6,1673
43.8,1603
44,1477
44.2,1505
44.4,1446
44.6,1479
44.8,1479
45,1536
45.2,1646
45.4,1567
45.6,1551
45.8,1717
46,1835
46.2,1626
46.4,1520
46.6,1467
46.8,1424
47,1395
47.2,1456
47.4,1627
47.6,1776
47.8,1776
48,1610
48.2,1434
48.4,1396
48.6,1469
48.8,1498
49,1508
49.2,1703
49.4,2016
49.6,1920
49.8,1754
50,1777
50.2,1630
50.4,1758
50.6,1774
50.8,1488
51,1226
51.2,1240
51.4,1225
51.6,1158
51.8,1358
51.95,1475