File: desktop/XRD_data/Chemin-CSV/cmb_476051894rda08850450000ch00113p1_Mohave2.csv
#2-THETA,#INTENSITY
1.95,9508
2.15,8440
2.35,4886
2.55,5891
2.75,4635
2.95,4176
3.15,3687
3.35,2950
3.55,2629
3.75,2046
3.95,2047
4.15,1990
4.35,1512
4.55,1550
4.75,1238
4.95,1349
5.15,1217
5.35,1203
5.55,1126
5.75,1154
5.95,1142
6.15,1265
6.35,1507
6.55,1469
6.75,1223
6.95,1011
7.15,876
7.35,786
7.55,776
7.75,689
7.95,719
8.15,640
8.35,683
8.55,641
8.75,669
8.95,681
9.15,614
9.35,642
9.55,638
9.75,613
9.95,697
10.15,663
10.35,606
10.55,579
10.75,601
10.95,591
11.15,558
11.35,581
11.55,508
11.75,533
11.95,552
12.15,552
12.35,555
12.55,588
12.75,602
12.95,617
13.15,612
13.35,585
13.55,555
13.75,548
13.95,570
14.15,538
14.35,558
14.55,552
14.75,549
14.95,562
15.15,530
15.35,555
15.55,544
15.75,616
15.95,839
16.15,756
16.35,654
16.55,627
16.75,618
16.95,633
17.15,654
17.35,756
17.55,771
17.75,720
17.95,654
18.15,717
18.35,692
18.55,657
18.75,690
18.95,624
19.15,645
19.35,667
19.55,667
19.75,682
19.95,727
20.15,767
20.35,1035
20.55,987
20.75,855
20.95,793
21.15,773
21.35,851
21.55,795
21.75,801
21.95,860
22.15,856
22.35,852
22.55,876
22.75,865
22.95,908
23.15,976
23.35,1021
23.55,994
23.75,959
23.95,1033
24.15,1005
24.35,1033
24.55,948
24.75,972
24.95,1009
25.15,1065
25.35,1213
25.55,2561
25.75,1920
25.95,1036
26.15,974
26.35,973
26.55,1141
26.75,1146
26.95,943
27.15,925
27.35,1060
27.55,1745
27.75,1601
27.95,1087
28.15,1237
28.35,1338
28.55,1510
28.75,989
28.95,882
29.15,896
29.35,954
29.55,954
29.75,1033
29.95,1025
30.15,978
30.35,1017
30.55,954
30.75,1130
30.95,1230
31.15,1190
31.35,961
31.55,887
31.75,880
31.95,1045
32.15,1752
32.35,3546
32.55,3349
32.75,2670
32.95,1244
33.15,1410
33.35,1165
33.55,1114
33.75,1151
33.95,1282
34.15,1178
34.35,1118
34.55,1385
34.75,1338
34.95,1001
35.15,1196
35.35,1579
35.55,1303
35.75,1112
35.95,1106
36.15,1086
36.35,861
36.55,832
36.75,1024
36.95,1002
37.15,996
37.35,891
37.55,827
37.75,771
37.95,777
38.15,778
38.35,892
38.55,1153
38.75,1213
38.95,849
39.15,666
39.35,748
39.55,760
39.75,663
39.95,696
40.15,711
40.35,649
40.55,692
40.75,842
40.95,880
41.15,928
41.35,1338
41.55,2518
41.75,2219
41.95,1307
42.15,919
42.35,843
42.55,786
42.75,888
42.95,824
43.15,734
43.35,716
43.55,703
43.75,713
43.95,654
44.15,669
44.35,693
44.55,640
44.75,645
44.95,608
45.15,606
45.35,613
45.55,611
45.75,666
45.95,755
46.15,809
46.35,701
46.55,706
46.75,663
46.95,704
47.15,673
47.35,756
47.55,780
47.75,843
47.95,797
48.15,690
48.35,624
48.55,613
48.75,612
48.95,610
49.15,684
49.35,798
49.55,914
49.75,812
49.95,884
50.15,732
50.35,756
50.55,820
50.75,826
50.95,711
51.15,615
51.35,655
51.55,621
51.75,596
51.95,800
52,748