File: desktop/XRD_data/Chemin-CSV/cmb_422579177rda02830060082ch12350p1_Cumberland.csv
#2-THETA,#INTENSITY
3,7808
3.2,6676
3.4,5829
3.6,4899
3.8,5052
4,4504
4.2,3520
4.4,3696
4.6,3196
4.8,3309
5,2906
5.2,3025
5.4,2767
5.6,2917
5.8,2665
6,2654
6.2,2727
6.4,2842
6.6,2850
6.8,2965
7,3234
7.2,2989
7.4,2881
7.6,2856
7.8,2932
8,2719
8.2,2575
8.4,2341
8.6,2254
8.8,2269
9,2125
9.2,1897
9.4,1899
9.6,1963
9.8,1879
10,1951
10.2,1748
10.4,1711
10.6,1643
10.8,1679
11,1516
11.2,1443
11.4,1401
11.6,1360
11.8,1234
12,1208
12.2,1164
12.4,1190
12.6,1324
12.8,1156
13,1149
13.2,1217
13.4,1202
13.6,1274
13.8,1342
14,1220
14.2,1163
14.4,1206
14.6,1144
14.8,1158
15,1268
15.2,1205
15.4,1192
15.6,1272
15.8,1582
16,1969
16.2,1478
16.4,1341
16.6,1268
16.8,1359
17,1687
17.2,1422
17.4,1381
17.6,1590
17.8,1418
18,1425
18.2,1634
18.4,1576
18.6,1586
18.8,1574
19,1628
19.2,1612
19.4,1633
19.6,1581
19.8,1454
20,1556
20.2,1514
20.4,1576
20.6,1541
20.8,1453
21,1517
21.2,1904
21.4,1788
21.6,1545
21.8,1569
22,1722
22.2,1881
22.4,2454
22.6,2206
22.8,2058
23,2123
23.2,2033
23.4,1892
23.6,1804
23.8,1900
24,1814
24.2,1788
24.4,1821
24.6,1861
24.8,1789
25,1864
25.2,2064
25.4,4252
25.6,5125
25.8,2174
26,1804
26.2,1768
26.4,2004
26.6,2422
26.8,1884
27,1723
27.2,2018
27.4,3288
27.6,3966
27.8,2234
28,1977
28.2,2304
28.4,2893
28.6,2206
28.8,1757
29,1816
29.2,2006
29.4,2217
29.6,2499
29.8,2605
30,2337
30.2,2028
30.4,1860
30.6,2271
30.8,2545
31,2397
31.2,2439
31.4,2124
31.6,2085
31.8,2460
32,4013
32.2,8177
32.4,9658
32.6,7220
32.8,3480
33,2690
33.2,2468
33.4,1505
33.6,1447
33.8,1614
34,1606
34.2,1778
34.4,3500
34.6,4330
34.8,3466
35,3406
35.2,3938
35.4,2950
35.6,2773
35.8,3306
36,3343
36.2,1912
36.4,1656
36.6,2115
36.8,1933
37,1756
37.2,2074
37.4,1718
37.6,1574
37.8,1398
38,1371
38.2,1555
38.4,1510
38.6,1587
38.8,1261
39,1250
39.2,1361
39.4,1599
39.6,1415
39.8,1548
40,1595
40.2,1570
40.4,1833
40.6,2581
40.8,3032
41,2314
41.2,2857
41.4,6873
41.6,6507
41.8,3358
42,2383
42.2,2321
42.4,2038
42.6,1594
42.8,1717
43,1473
43.2,1286
43.4,1518
43.6,1466
43.8,1301
44,1203
44.2,1272
44.4,1144
44.6,1155
44.8,1134
45,1068
45.2,1090
45.4,1163
45.6,1202
45.8,1455
46,1418
46.2,1227
46.4,1136
46.6,1122
46.8,1215
47,1078
47.2,1096
47.4,1222
47.6,1351
47.8,1247
48,1209
48.2,1049
48.4,980
48.6,1053
48.8,1108
49,1168
49.2,1332
49.4,1866
49.6,1762
49.8,1468
50,1525
50.2,1358
50.4,1429
50.6,1865
50.8,1314
51,982
51.2,997
51.4,893
51.6,945
51.8,958
51.95,1019