File: desktop/XRD_data/Chemin-CSV/cmb_452848863rda06240311330ch00111p1_Windjana.csv
#2-THETA,#INTENSITY
3,3017
3.196,2878
3.392,2405
3.588,2050
3.784,1875
3.98,1569
4.176,1822
4.372,1414
4.568,1454
4.764,1238
4.96,1229
5.156,1172
5.352,1182
5.548,1086
5.744,1050
5.94,955
6.136,927
6.332,850
6.528,923
6.724,888
6.92,864
7.116,808
7.312,763
7.508,858
7.704,738
7.9,773
8.096,783
8.292,682
8.488,667
8.684,719
8.88,707
9.076,682
9.272,651
9.468,675
9.664,646
9.86,688
10.056,706
10.252,775
10.448,664
10.644,639
10.84,593
11.036,592
11.232,542
11.428,567
11.624,502
11.82,527
12.016,502
12.212,505
12.408,502
12.604,519
12.8,495
12.996,511
13.192,479
13.388,500
13.584,532
13.78,575
13.976,549
14.172,500
14.368,517
14.564,500
14.76,532
14.956,499
15.152,502
15.348,544
15.544,564
15.74,721
15.936,667
16.132,584
16.328,496
16.524,495
16.72,510
16.916,521
17.112,569
17.308,570
17.504,671
17.7,587
17.896,546
18.092,574
18.288,587
18.484,620
18.68,635
18.876,621
19.072,678
19.268,634
19.464,603
19.66,613
19.856,608
20.052,648
20.248,582
20.444,617
20.64,581
20.836,580
21.032,643
21.228,834
21.424,714
21.62,582
21.816,610
22.012,678
22.208,669
22.404,728
22.6,699
22.796,730
22.992,745
23.188,726
23.384,714
23.58,681
23.776,659
23.972,721
24.168,806
24.364,1141
24.56,925
24.756,770
24.952,690
25.148,637
25.344,700
25.54,898
25.736,709
25.932,711
26.128,826
26.324,866
26.52,781
26.716,703
26.912,666
27.108,1015
27.304,1510
27.5,1038
27.696,844
27.892,734
28.088,726
28.284,748
28.48,814
28.676,796
28.872,705
29.068,742
29.264,815
29.46,918
29.656,924
29.852,1139
30.048,1057
30.244,803
30.44,776
30.636,758
30.832,917
31.028,1412
31.224,1817
31.42,1561
31.616,1497
31.812,1489
32.008,1887
32.204,2041
32.4,1398
32.596,1244
32.792,857
32.988,738
33.184,713
33.38,676
33.576,672
33.772,688
33.968,712
34.164,741
34.36,1220
34.556,3230
34.752,3172
34.948,1876
35.144,1913
35.34,1700
35.536,1238
35.732,1622
35.928,1817
36.124,1322
36.32,807
36.516,699
36.712,694
36.908,758
37.104,764
37.3,899
37.496,961
37.692,844
37.888,756
38.084,806
38.28,791
38.476,732
38.672,658
38.868,636
39.064,607
39.26,668
39.456,627
39.652,704
39.848,781
40.044,837
40.24,933
40.436,1217
40.632,1654
40.828,1509
41.024,1455
41.22,3011
41.416,4641
41.612,3058
41.808,1757
42.004,1107
42.2,1042
42.396,1251
42.592,970
42.788,764
42.984,796
43.18,814
43.376,763
43.572,639
43.768,708
43.964,694
44.16,640
44.356,614
44.552,614
44.748,601
44.944,617
45.14,658
45.336,688
45.532,682
45.728,745
45.924,798
46.12,784
46.316,711
46.512,682
46.708,601
46.904,582
47.1,615
47.296,701
47.492,840
47.688,903
47.884,818
48.08,743
48.276,660
48.472,727
48.668,854
48.864,737
49.06,767
49.256,902
49.452,1156
49.648,1042
49.844,865
50.04,786
50.236,884
50.432,1181
50.628,1117
50.824,799
51.02,664
51.216,668
51.412,651
51.608,681
51.804,729
51.951,912