File: desktop/XRD_data/Chemin-CSV/cmb_463252317rda07410410838ch00111p1_berylQuartz3-97.csv
#2-THETA,#INTENSITY
3,82
3.196,84
3.392,77
3.588,84
3.784,67
3.98,50
4.176,72
4.372,79
4.568,61
4.764,58
4.96,65
5.156,81
5.352,65
5.548,82
5.744,110
5.94,137
6.136,201
6.332,288
6.528,315
6.724,250
6.92,167
7.116,98
7.312,80
7.508,72
7.704,60
7.9,66
8.096,63
8.292,60
8.488,56
8.684,52
8.88,63
9.076,64
9.272,71
9.468,58
9.664,58
9.86,60
10.056,62
10.252,55
10.448,57
10.644,52
10.84,56
11.036,54
11.232,64
11.428,65
11.624,355
11.82,167
12.016,139
12.212,141
12.408,147
12.604,252
12.8,5080
12.996,3635
13.192,157
13.388,101
13.584,69
13.78,60
13.976,66
14.172,66
14.368,63
14.564,71
14.76,78
14.956,70
15.152,75
15.348,77
15.544,76
15.74,81
15.936,76
16.132,95
16.328,100
16.524,77
16.72,96
16.916,94
17.112,90
17.308,99
17.504,95
17.7,98
17.896,87
18.092,87
18.288,87
18.484,97
18.68,91
18.876,97
19.072,94
19.268,96
19.464,91
19.66,96
19.856,86
20.052,97
20.248,157
20.444,137
20.64,92
20.836,106
21.032,103
21.228,97
21.424,105
21.62,106
21.816,119
22.012,118
22.208,324
22.404,1936
22.6,792
22.796,118
22.992,116
23.188,106
23.384,159
23.58,165
23.776,110
23.972,99
24.168,117
24.364,128
24.56,109
24.756,102
24.952,110
25.148,112
25.344,118
25.54,173
25.736,514
25.932,2110
26.128,754
26.324,122
26.52,112
26.716,103
26.912,86
27.108,100
27.304,89
27.5,97
27.696,90
27.892,84
28.088,85
28.284,93
28.48,96
28.676,151
28.872,254
29.068,125
29.264,116
29.46,106
29.656,115
29.852,106
30.048,117
30.244,110
30.44,121
30.636,116
30.832,160
31.028,285
31.224,222
31.42,134
31.616,257
31.812,2712
32.008,2858
32.204,300
32.4,128
32.596,122
32.792,255
32.988,196
33.184,104
33.38,117
33.576,100
33.772,105
33.968,113
34.164,122
34.36,555
34.556,1287
34.752,374
34.948,123
35.144,101
35.34,117
35.536,111
35.732,114
35.928,124
36.124,564
36.32,3620
36.516,2242
36.712,182
36.908,104
37.104,100
37.3,97
37.496,135
37.692,98
37.888,90
38.084,90
38.28,90
38.476,85
38.672,93
38.868,89
39.064,94
39.26,108
39.456,100
39.652,87
39.848,81
40.044,83
40.24,80
40.436,85
40.632,88
40.828,86
41.024,88
41.22,120
41.416,665
41.612,1062
41.808,241
42.004,85
42.2,82
42.396,90
42.592,97
42.788,89
42.984,90
43.18,84
43.376,82
43.572,76
43.768,86
43.964,87
44.16,102
44.356,94
44.552,92
44.748,82
44.944,82
45.14,90
45.336,91
45.532,113
45.728,327
45.924,332
46.12,126
46.316,100
46.512,95
46.708,92
46.904,85
47.1,97
47.296,101
47.492,127
47.688,257
47.884,217
48.08,127
48.276,101
48.472,87
48.668,100
48.864,131
49.06,494
49.256,503
49.452,148
49.648,97
49.844,103
50.04,94
50.236,105
50.432,85
50.628,99
50.824,93
51.02,99
51.216,106
51.412,175
51.608,303
51.804,170
51.951,120