File: desktop/XRD_data/Chemin-CSV/cmb_484894114rda09850480000ch00111p1_berylQuartz88-12.csv
#2-THETA,#INTENSITY
1.95,53
2.15,27
2.35,43
2.55,30
2.75,28
2.95,21
3.15,23
3.35,18
3.55,21
3.75,20
3.95,16
4.15,15
4.35,5
4.55,16
4.75,15
4.95,17
5.15,19
5.35,14
5.55,26
5.75,25
5.95,28
6.15,44
6.35,67
6.55,78
6.75,64
6.95,35
7.15,31
7.35,27
7.55,25
7.75,12
7.95,20
8.15,15
8.35,16
8.55,15
8.75,17
8.95,19
9.15,13
9.35,13
9.55,18
9.75,13
9.95,12
10.15,17
10.35,9
10.55,17
10.75,20
10.95,13
11.15,18
11.35,20
11.55,72
11.75,85
11.95,30
12.15,32
12.35,40
12.55,50
12.75,647
12.95,1113
13.15,69
13.35,28
13.55,19
13.75,20
13.95,17
14.15,15
14.35,19
14.55,21
14.75,18
14.95,16
15.15,12
15.35,16
15.55,19
15.75,24
15.95,21
16.15,23
16.35,22
16.55,24
16.75,23
16.95,17
17.15,25
17.35,27
17.55,23
17.75,25
17.95,20
18.15,27
18.35,23
18.55,18
18.75,29
18.95,23
19.15,22
19.35,28
19.55,24
19.75,24
19.95,26
20.15,30
20.35,42
20.55,28
20.75,30
20.95,27
21.15,30
21.35,28
21.55,29
21.75,27
21.95,33
22.15,33
22.35,264
22.55,289
22.75,39
22.95,26
23.15,26
23.35,39
23.55,49
23.75,27
23.95,31
24.15,32
24.35,42
24.55,31
24.75,29
24.95,27
25.15,28
25.35,33
25.55,46
25.75,112
25.95,438
26.15,199
26.35,28
26.55,26
26.75,28
26.95,18
27.15,20
27.35,25
27.55,21
27.75,21
27.95,24
28.15,26
28.35,25
28.55,26
28.75,51
28.95,66
29.15,33
29.35,27
29.55,28
29.75,27
29.95,29
30.15,34
30.35,30
30.55,31
30.75,34
30.95,59
31.15,92
31.35,47
31.55,30
31.75,233
31.95,793
32.15,227
32.35,35
32.55,36
32.75,50
32.95,68
33.15,31
33.35,30
33.55,29
33.75,29
33.95,27
34.15,28
34.35,75
34.55,275
34.75,122
34.95,30
35.15,26
35.35,24
35.55,28
35.75,30
35.95,37
36.15,118
36.35,745
36.55,486
36.75,53
36.95,31
37.15,21
37.35,29
37.55,33
37.75,22
37.95,23
38.15,25
38.35,20
38.55,21
38.75,24
38.95,25
39.15,24
39.35,32
39.55,27
39.75,22
39.95,18
40.15,16
40.35,18
40.55,19
40.75,21
40.95,20
41.15,23
41.35,47
41.55,219
41.75,159
41.95,30
42.15,20
42.35,20
42.55,22
42.75,22
42.95,19
43.15,24
43.35,20
43.55,14
43.75,16
43.95,23
44.15,23
44.35,31
44.55,26
44.75,30
44.95,18
45.15,25
45.35,25
45.55,19
45.75,55
45.95,81
46.15,31
46.35,30
46.55,27
46.75,22
46.95,22
47.15,28
47.35,28
47.55,31
47.75,51
47.95,53
48.15,33
48.35,28
48.55,25
48.75,24
48.95,35
49.15,99
49.35,111
49.55,25
49.75,31
49.95,29
50.15,21
50.35,25
50.55,28
50.75,24
50.95,21
51.15,24
51.35,32
51.55,55
51.75,66
51.95,34
52,31