File: desktop/XRD_data/Chemin-CSV/difdata-chemin.txt
      Akaganeite
      Post J E, Heaney P J, Von Dreele R B, Hanson J C
      American Mineralogist 88 (2003) 782-788
      Neutron and temperature-resolved synchrotron X-ray powder diffraction
      study of akaganeite
      _database_code_amcsd 0003079

      CELL PARAMETERS:  10.5870  3.0311 10.5150   90.000   90.030   90.000
      SPACE GROUP: I2/m
      X-RAY WAVELENGTH:     1.541838
      MAX. ABS. INTENSITY / VOLUME**2:      12.3609
               2-THETA      INTENSITY    D-SPACING   H   K   L   Multiplicity
                11.86         93.53        7.4625   -1   0   1         2
                11.87         79.23        7.4586    1   0   1         2
                16.75         47.36        5.2935    2   0   0         2
                16.86         57.66        5.2575    0   0   2         2
                23.85          8.48        3.7313   -2   0   2         2
                23.86          7.20        3.7293    2   0   2         2
                26.64         43.66        3.3461   -3   0   1         2
                26.65         78.32        3.3451    3   0   1         2
                26.79         81.87        3.3279   -1   0   3         2
                26.80         43.97        3.3269    1   0   3         2
                33.87         39.49        2.6467    4   0   0         2
                34.11         31.62        2.6287    0   0   4         2
                35.17         51.32        2.5519   -2   1   1         4
                35.17         48.68        2.5516    2   1   1         4
                35.21         40.55        2.5489   -1   1   2         4
                35.21         54.10        2.5486    1   1   2         4
                36.11          9.26        2.4875   -3   0   3         2
                36.13          8.11        2.4862    3   0   3         2
                38.06          1.51        2.3646   -4   0   2         2
                38.07          7.83        2.3636    4   0   2         2
                38.22          7.92        2.3549   -2   0   4         2
                38.23          2.44        2.3539    2   0   4         2
                39.18         32.83        2.2994    3   1   0         4
                39.30         29.81        2.2927    0   1   3         4
                42.92          6.42        2.1070   -3   1   2         4
                42.94          5.15        2.1064    3   1   2         4
                42.99          4.68        2.1041   -2   1   3         4
                43.00          6.61        2.1036    2   1   3         4
                43.60          5.14        2.0759   -5   0   1         2
                43.61          1.57        2.0755    5   0   1         2
                43.89          2.49        2.0629   -1   0   5         2
                43.90          3.51        2.0625    1   0   5         2
                46.35         13.26        1.9589   -4   1   1         4
                46.36         17.76        1.9586    4   1   1         4
                46.52         14.93        1.9520   -1   1   4         4
                46.53         16.42        1.9518    1   1   4         4
                48.81          8.39        1.8656   -4   0   4         2
                48.84          6.71        1.8647    4   0   4         2
                51.81         24.66        1.7645    6   0   0         2
                52.19         21.44        1.7525    0   0   6         2
                52.73          2.29        1.7358    5   1   0         4
                52.84          1.13        1.7326    4   1   3         4
                52.89          1.62        1.7310   -3   1   4         4
                52.91          1.20        1.7304    3   1   4         4
                53.00          4.45        1.7279    0   1   5         4
                54.88          1.27        1.6731   -6   0   2         2
                55.22          1.41        1.6634    2   0   6         2
                55.76         21.94        1.6485   -5   1   2         4
                55.78         36.92        1.6481    5   1   2         4
                55.97         39.03        1.6428   -2   1   5         4
                55.99         25.21        1.6424    2   1   5         4
                61.15         21.04        1.5156    0   2   0         2
                61.43          7.77        1.5092   -6   1   1         4
                61.44          1.18        1.5090    6   1   1         4
                61.77          8.22        1.5017    1   1   6         4
                61.99          1.32        1.4971   -7   0   1         2
                62.00          5.10        1.4969    7   0   1         2
                62.44          4.01        1.4874   -1   0   7         2
                62.54          3.23        1.4852   -1   2   1         4
                62.54          3.01        1.4852    1   2   1         4
                63.52          2.85        1.4647    6   0   4         2
                63.67          3.29        1.4616   -4   0   6         2
                63.89          2.85        1.4570    2   2   0         4
                63.93          3.36        1.4563    0   2   2         4
                64.30         18.04        1.4488   -5   1   4         4
                64.32          8.85        1.4482    5   1   4         4
                64.38          7.45        1.4471   -4   1   5         4
                64.41         16.86        1.4466    4   1   5         4
                66.90          1.14        1.3986   -6   1   3         4
                67.43          6.82        1.3889   -7   0   3         2
                67.46          4.79        1.3884    7   0   3         2
                67.79          4.37        1.3824   -3   0   7         2
                67.82          6.82        1.3819    3   0   7         2
                67.89          2.60        1.3805   -3   2   1         4
                67.90          4.92        1.3805    3   2   1         4
                67.96          5.27        1.3793   -1   2   3         4
                67.97          2.50        1.3792    1   2   3         4
                71.77          6.98        1.3152    4   2   0         4
                71.91          5.94        1.3130    0   2   4         4
                73.12          3.17        1.2943   -3   2   3         4
                73.13          3.05        1.2941    3   2   3         4
                76.61          1.49        1.2438   -6   0   6         2
                76.66          2.48        1.2431    6   0   6         2
                77.27          4.52        1.2348   -6   1   5         4
                77.40          3.09        1.2330    5   1   6         4
                77.97          1.10        1.2255   -5   0   7         2
                79.56          1.71        1.2049   -8   1   1         4
                79.57          1.07        1.2048    8   1   1         4
                80.10          2.57        1.1981    1   1   8         4
                81.89          1.76        1.1763   -4   2   4         4
                81.92          1.36        1.1761    4   2   4         4
                82.52          1.48        1.1690    9   0   1         2
                83.18          1.68        1.1613   -1   0   9         2
                84.22          6.22        1.1497    6   2   0         4
                84.52          5.61        1.1463    0   2   6         4
================================================================================
       XPOW Copyright 1993 Bob Downs, Ranjini Swaminathan and Kurt Bartelmehs
  For reference, see Downs et al. (1993) American Mineralogist 78, 1104-1107.
_END_
      Andesine
      FitzGerald J D, Parise J B, Mackinnon I D R
      American Mineralogist 71 (1986) 1399-1408
      Average structure of an An48 plagioclase from the Hogarth Ranges
      Sample: Neutron data
      _database_code_amcsd 0001052

      CELL PARAMETERS:   8.1790 12.8800  7.1120   93.440  116.210   90.230
      SPACE GROUP: C-1
      X-RAY WAVELENGTH:     1.541838
      MAX. ABS. INTENSITY / VOLUME**2:      4.57577
               2-THETA      INTENSITY    D-SPACING   H   K   L   Multiplicity
                13.70          8.13        6.4649   -1   1   0         2
                13.91          1.24        6.3656    0   0   1         2
                15.68          1.54        5.6503   -1   1   1         2
                21.97         85.49        4.0450   -2   0   1         2
                23.66         28.72        3.7609    1   1   1         2
                24.42         34.71        3.6449    1   3   0         2
                25.46          1.09        3.4986   -1   3   1         2
                25.96          4.99        3.4326   -2  -2   1         2
                27.60         51.27        3.2325   -2   2   0         2
                27.82         94.38        3.2072   -2   0   2         2
                28.43         41.66        3.1390    2   2   0         2
                30.29         26.58        2.9507    0  -4   1         2
                30.66         10.30        2.9160   -2  -2   2         2
                31.76          7.81        2.8177   -1  -3   2         2
                35.33          3.09        2.5404    2  -2   1         2
                35.59          4.02        2.5229   -3  -1   2         2
                35.80         19.20        2.5080   -2   4   1         2
                36.55          2.60        2.4582   -2   4   0         2
                37.17          4.34        2.4188   -1  -5   1         2
                37.69          3.31        2.3866    3   1   0         2
                38.24          3.10        2.3536   -1   5   1         2
                39.39          6.56        2.2876   -3  -3   1         2
                40.07          1.63        2.2503    1  -3   2         2
                40.53          2.31        2.2260   -2   4   2         2
                41.80          2.08        2.1611   -2   2   3         2
                42.15          1.13        2.1439   -1  -5   2         2
                42.53         12.75        2.1254    2  -4   1         2
                43.17          1.95        2.0957   -3   1   3         2
                44.77          1.03        2.0244   -1   5   2         2
                44.99          3.30        2.0150   -4   0   1         2
                45.45          1.56        1.9956    3  -1   1         2
                45.61          4.65        1.9888    0   6   1         2
                46.63          3.13        1.9479    2  -2   2         2
                47.20          9.92        1.9258   -4   2   2         2
                48.49          5.38        1.8773   -2   6   0         2
                49.24         11.39        1.8506   -4   0   3         2
                49.73         13.10        1.8334    4   0   0         2
                49.85          2.55        1.8294    0  -4   3         2
                50.29          3.41        1.8145   -2  -6   2         2
                50.86          2.54        1.7952   -1   7   0         2
                51.22          1.12        1.7835   -1  -7   1         2
                52.28          5.73        1.7498    2  -4   2         2
                52.32          1.35        1.7484    1   5   2         2
                52.38          1.18        1.7466   -1   7   1         2
                52.98          1.33        1.7283    1  -3   3         2
                53.29          3.00        1.7191   -4   4   1         2
                53.38          5.85        1.7163   -4  -4   2         2
                54.10          1.77        1.6951   -4  -4   1         2
                54.75          1.55        1.6766   -3  -5   3         2
                56.37          1.42        1.6321   -3  -3   4         2
                56.83          1.49        1.6199    3  -5   1         2
                57.37          2.12        1.6062    0   8   0         2
                58.27          1.42        1.5834    0  -8   1         2
                58.81          2.45        1.5702    0  -2   4         2
                60.01          2.07        1.5416   -4   2   4         2
                60.21          1.04        1.5369    1  -7   2         2
                61.17          1.93        1.5152   -2   4   4         2
                62.04          4.88        1.4960   -2  -8   1         2
                62.36          1.07        1.4891    3   3   2         2
                62.66          1.05        1.4825   -5  -3   1         2
                63.00          1.66        1.4754    0  -8   2         2
                63.46          3.59        1.4659   -4   6   2         2
                64.08          3.97        1.4531    2   8   0         2
                65.28          2.04        1.4293   -5   1   4         2
                65.93          1.24        1.4168   -4   6   0         2
                66.28          1.80        1.4102    1   1   4         2
                67.23          3.39        1.3925    1   9   0         2
                67.77          2.48        1.3828   -4   6   3         2
                67.95          3.28        1.3795   -5  -3   4         2
                68.37          2.89        1.3721    1  -9   1         2
                68.52          2.47        1.3695    2   4   3         2
                69.05          6.69        1.3602   -6   0   2         2
                69.59          6.49        1.3509    4   0   2         2
                69.72          1.69        1.3488    2   8   1         2
                70.44          1.12        1.3367    4  -2   2         2
                70.94          1.37        1.3285   -6  -2   2         2
                71.34          2.73        1.3220   -1  -3   5         2
                71.43          1.10        1.3206    3   1   3         2
                72.89          1.63        1.2978   -1   9   2         2
                73.97          1.00        1.2814   -6   0   4         2
                74.82          1.48        1.2690    2   0   4         2
                75.05          1.31        1.2657   -4   8   1         2
                75.33          4.26        1.2616   -4  -8   2         2
                75.87          3.48        1.2540   -4   8   2         2
                76.70          1.48        1.2425   -5  -3   5         2
                77.15          1.91        1.2364   -4   4   5         2
                78.24          1.33        1.2218    4   4   2         2
                79.12          1.87        1.2105   -3   5   5         2
                81.71          1.00        1.1785   -4  -6   5         2
                82.66          1.37        1.1673    1  -7   4         2
                83.61          2.20        1.1565    3   5   3         2
                84.13          1.40        1.1506   -5  -7   4         2
                85.42          1.14        1.1366   -1  -9   4         2
                86.07          2.03        1.1297    6   4   0         2
                86.10          1.45        1.1293   -3  -9   4         2
================================================================================
       XPOW Copyright 1993 Bob Downs, Ranjini Swaminathan and Kurt Bartelmehs
  For reference, see Downs et al. (1993) American Mineralogist 78, 1104-1107.
_END_
      Anorthite
      Angel R J, Carpenter M A, Finger L W
      American Mineralogist 75 (1990) 150-162
      Structural variation associated with compositional variation and order-disorder
      behavior in anorthite-rich feldspars
      sample from Monte Somma
      _database_code_amcsd 0001287

      CELL PARAMETERS:   8.1796 12.8747 14.1720   93.134  115.885   91.236
      SPACE GROUP: P-1
      X-RAY WAVELENGTH:     1.541838
      MAX. ABS. INTENSITY / VOLUME**2:      4.64549
               2-THETA      INTENSITY    D-SPACING   H   K   L   Multiplicity
                13.00          8.42        6.8075   -1  -1   1         2
                13.79          2.82        6.4195    0   2   0         2
                17.33          2.54        5.1164    1  -1   1         2
                18.93         17.74        4.6878    0  -2   2         2
                20.96          1.97        4.2392    0   0   3         2
                22.72         13.48        3.9145    1  -1   2         2
                23.52         32.53        3.7825   -1   3   0         2
                23.69         19.16        3.7557    1   1   2         2
                24.32          1.11        3.6594    0  -2   3         2
                24.71         12.64        3.6024   -1  -3   2         2
                25.64          3.79        3.4743    1  -3   1         2
                25.93          1.82        3.4356   -2   2   2         2
                26.18          7.47        3.4037   -2  -2   2         2
                27.35         62.88        3.2611   -2   2   0         2
                27.79         53.17        3.2097    0   4   0         2
                28.06         91.53        3.1794    0   0   4         2
                29.37         22.72        3.0407    1  -3   2         2
                30.47         21.09        2.9335    0  -2   4         2
[...]
                82.54          1.10        1.1688    0   4   8         2
                82.65          1.61        1.1675    6   2   8         2
                83.57          4.74        1.1569    9   3   0         2
                83.79          1.95        1.1545    0   6   0         1
                84.08          1.30        1.1513   -7   1   8         2
                84.21          1.22        1.1498   -5   3   8         2
                84.50          1.51        1.1466    2   4   8         2
                85.52          1.29        1.1355    8   4   0         2
                86.65          3.38        1.1236   -5   5   4         2
                86.70          1.53        1.1230   10   0   4         2
                89.95          1.51        1.0907   -4   4   8         2
================================================================================
       XPOW Copyright 1993 Bob Downs, Ranjini Swaminathan and Kurt Bartelmehs
  For reference, see Downs et al. (1993) American Mineralogist 78, 1104-1107.
_END_
      Clinoenstatite
      Tribaudino M, Nestola F, Camara F, Domeneghetti M C
      American Mineralogist 87 (2002) 648-657
      The high-temperature P2_1/c - C2/c phase transition in Fe-free pyroxene
      (Ca.15Mg1.85Si2O6): Structural and thermodynamic behavior
      Sample: dien2, T = 25 deg C
      _database_code_amcsd 0002801

      CELL PARAMETERS:   9.6510  8.8460  5.2020   90.000  108.380   90.000
      SPACE GROUP: P2_1/c
      X-RAY WAVELENGTH:     1.541838
      MAX. ABS. INTENSITY / VOLUME**2:      8.90218
               2-THETA      INTENSITY    D-SPACING   H   K   L   Multiplicity
                20.08          6.95        4.4230    0   2   0         2
                20.60          5.86        4.3108    0   1   1         4
                25.14          1.80        3.5426    1   1   1         4
                26.76          2.51        3.3310   -1   2   1         4
                27.07         35.36        3.2942    0   2   1         4
                28.05         34.99        3.1814    2   2   0         4
                29.89        100.00        2.9889   -2   2   1         4
                30.72          1.78        2.9109    1   2   1         4
                30.88         27.20        2.8957   -3   1   1         4
                30.99         57.99        2.8859    3   1   0         4
                31.88          1.25        2.8068    1   3   0         4
                35.22         23.70        2.5481   -1   3   1         4
                35.46          7.90        2.5316   -2   0   2         2
                35.46          6.78        2.5315    0   3   1         4
                36.40         42.60        2.4683    0   0   2         2
                36.81         22.21        2.4417    2   2   1         4
                37.72          8.43        2.3848   -2   3   1         4
                40.64          8.23        2.2197    3   1   1         4
                40.75          7.20        2.2143    1   0   2         2
                42.06          7.58        2.1480    1   1   2         4
                42.55         29.88        2.1248   -3   3   1         4
                42.63          1.76        2.1209    3   3   0         4
                43.11          4.75        2.0984   -4   2   1         4
                44.27          1.88        2.0461   -3   2   2         4
                44.70          8.61        2.0274   -4   0   2         2
                44.72          1.29        2.0266   -1   4   1         4
                44.91          8.77        2.0182    0   4   1         4
                45.55          3.67        1.9914    2   4   0         4
                45.92          2.88        1.9761   -4   1   2         4
                46.79          6.76        1.9415   -2   4   1         4
                47.01          6.48        1.9331    2   0   2         2
                49.15          2.31        1.8538   -4   3   1         4
                50.91          5.38        1.7937    5   1   0         4
                50.92          1.19        1.7933   -3   4   1         4
                51.60          7.24        1.7713    2   2   2         4
                51.75          1.82        1.7665   -5   2   1         4
                51.80          3.24        1.7648    2   4   1         4
                52.69          7.54        1.7371    1   5   0         4
                53.31          1.79        1.7183    4   2   1         4
                55.14          2.72        1.6655   -2   4   2         4
                55.15          1.46        1.6655    0   5   1         4
                55.42          2.50        1.6578   -3   1   3         4
                55.76          6.46        1.6487    3   1   2         4
                55.81          2.57        1.6471    0   4   2         4
                57.10         23.67        1.6130   -5   3   1         4
                57.11         18.72        1.6129   -2   2   3         4
                57.60          1.18        1.6003   -1   2   3         4
                57.93          1.04        1.5918    3   4   1         4
                57.98          1.88        1.5907    4   4   0         4
                58.57          1.10        1.5761    4   3   1         4
                60.41          4.97        1.5322   -6   0   2         2
                60.42          2.38        1.5322   -3   5   1         4
                60.48          4.41        1.5307    3   5   0         4
                60.67          4.34        1.5264    6   0   0         2
                62.15          9.01        1.4935   -2   3   3         4
                62.62         10.64        1.4835   -1   3   3         4
                63.05         14.63        1.4743    0   6   0         2
                63.54          3.30        1.4642    4   0   2         2
                63.88          1.31        1.4573   -5   1   3         4
                63.97          1.26        1.4554    2   4   2         4
                64.34          2.08        1.4478   -6   2   2         4
                64.84          3.05        1.4380    0   5   2         4
                66.60          3.04        1.4041   -3   5   2         4
                66.75          1.64        1.4013   -5   2   3         4
                66.78          1.08        1.4008    3   5   1         4
                67.80          1.02        1.3822    1   5   2         4
                67.83         28.15        1.3817    5   3   1         4
                68.85          4.99        1.3636   -2   4   3         4
                68.87          3.87        1.3633    1   3   3         4
                69.87          1.17        1.3462    2   2   3         4
                69.96          3.30        1.3447   -7   0   2         2
                70.88          7.29        1.3294   -7   1   2         4
                71.41          2.92        1.3209   -5   3   3         4
                71.46          2.02        1.3202    0   4   3         4
                73.08          2.96        1.2948   -3   0   4         2
                73.11          2.08        1.2943    7   1   0         4
                73.72          1.96        1.2852   -2   1   4         4
                74.36          2.61        1.2757    5   1   2         4
                74.47          2.52        1.2740   -2   6   2         4
                74.57          1.35        1.2725    5   5   0         4
                75.04          3.14        1.2658   -4   0   4         2
                75.04          8.94        1.2657    0   6   2         4
                75.94          1.04        1.2530   -4   1   4         4
                76.34          2.11        1.2475   -7   3   1         4
                78.20          1.56        1.2223    0   1   4         4
                78.29          1.68        1.2212   -3   5   3         4
                78.57          6.34        1.2175    3   5   2         4
                80.56          1.66        1.1924   -4   6   2         4
                81.51          1.29        1.1809    3   3   3         4
                82.17          1.36        1.1730   -5   2   4         4
                82.24          1.15        1.1723    2   6   2         4
                84.66          1.09        1.1448    8   0   0         2
================================================================================
       XPOW Copyright 1993 Bob Downs, Ranjini Swaminathan and Kurt Bartelmehs
  For reference, see Downs et al. (1993) American Mineralogist 78, 1104-1107.
_END_