File: desktop/XRD_data/C-D-75-film.txt
#InstrumentID: Terra.157
#FileName: /home/chemin/data/C-D-75/processed/C-D-75-film.plv
#SampleInfo:
#AcquisitionDate: 04/06/09 08:39:06
#IntegrationTime: 990 seconds
#GeometryParams: axisX = 1129 axisY = 128 axisZ = 1252 sensorAngle1 = 0.523599 sensorAngle3 = 0
#EnergyParams: splitThreshold = 3 CoKaPeak = 539 kBFilterIn = 1
5	24.0526
5.2	23.6554
5.4	22.11
5.6	24.6494
5.8	25.1928
6	26.5216
6.2	25.7014
6.4	30.7104
6.6	26.7135
6.8	25.1587
7	23.894
7.2	25.7712
7.4	29.4687
7.6	24.0937
7.8	21.9353
8	27.951
8.2	23.9989
8.4	23.897
8.6	25.4201
8.8	26.6844
9	24.0921
9.2	27.4636
9.4	26.3471
9.6	26.757
9.8	29.5628
10	28.9023
10.2	27.76
10.4	29.0373
10.6	28.4346
10.8	33.9576
11	32.2724
11.2	32.4093
11.4	35.2475
11.6	31.6736
11.8	32.2746
12	28.6706
12.2	33.2969
12.4	30.1423
12.6	30.219
12.8	31.9201
13	32.812
13.2	32.875
13.4	35.9652
13.6	34.9468
13.8	33.2797
14	33.9669
14.2	33.5938
14.4	40.5994
14.6	37.7983
14.8	35.6836
15	35.2641
15.2	30.945
15.4	34.871
15.6	34.6281
15.8	30.6373
16	37.2902
16.2	36.6581
16.4	37.4595
16.6	38.709
16.8	36.8116
17	34.3217
17.2	43.3936
17.4	38.923
17.6	38.0303
17.8	38.3025
18	36.8108
18.2	32.6394
18.4	37.5375
18.6	39.2874
18.8	35.5113
19	36.6778
19.2	43.5565
19.4	39.452
19.6	37.2175
19.8	33.4067
20	33.6795
20.2	41.3682
20.4	34.9828
20.6	35.2401
20.8	36.7061
21	37.7178
21.2	33.1058
21.4	37.1298
21.6	34.239
21.8	32.1768
22	38.3308
22.2	33.4981
22.4	31.1981
22.6	27.9244
22.8	34.9627
23	30.8038
23.2	28.4182
23.4	34.0325
23.6	32.8713
23.8	33.4356
24	32.0229
24.2	31.5568
24.4	34.5162
24.6	33.1901
24.8	33.4375
25	32.835
25.2	29.1265
25.4	32.0885
25.6	33.824
25.8	27.6991
26	29.4601
26.2	25.3166
26.4	28.4979
26.6	28.776
26.8	40.1888
27	29.9483
27.2	33.1876
27.4	34.1165
27.6	28.7842
27.8	34.6113
28	44.9132
28.2	31.6927
28.4	29.4687
28.6	30.3305
28.8	29.7004
29	28.0827
29.2	29.5356
29.4	27.9465
29.6	29.962
29.8	28.1462
30	24.9388
30.2	25.81
30.4	27.9979
30.6	27.0791
30.8	31.2335
31	29.9051
31.2	31.6743
31.4	26.8597
31.6	29.2694
31.8	27.4277
32	27.879
32.2	27.7658
32.4	28.9582
32.6	31.8861
32.8	26.2334
33	28.1575
33.2	24.6917
33.4	27.2783
33.6	29.1083
33.8	34.5188
34	32.5996
34.2	92.7764
34.4	82.6866
34.6	28.6263
34.8	25.2662
35	26.2591
35.2	23.8924
35.4	29.4917
35.6	32.3204
35.8	57.5924
36	276.099
36.2	239.996
36.4	52.0572
36.6	39.2957
36.8	30.8746
37	24.9486
37.2	25.3696
37.4	26.0537
37.6	28.2663
37.8	25.1088
38	27.3386
38.2	28.334
38.4	28.1476
38.6	30.567
38.8	26.959
39	37.5836
39.2	42.1048
39.4	28.8629
39.6	28.3862
39.8	26.8701
40	26.0166
40.2	26.619
40.4	24.9004
40.6	29.3001
40.8	26.2116
41	27.7393
41.2	43.6263
41.4	27.5463
41.6	25.6969
41.8	25.1322
42	33.7048
42.2	26.0764
42.4	24.9653
42.6	26.7051
42.8	25.6301
43	23.4334
43.2	27.1297
43.4	27.9998
43.6	41.3716
43.8	38.6678
44	23.9508
44.2	25.5397
44.4	21.4021
44.6	24.6826
44.8	28.2545
45	24.8526
45.2	27.2523
45.4	21.3906
45.6	26.407
45.8	26.4459
46	37.0746
46.2	34.4162
46.4	24.24
46.6	23.4327
46.8	24.5531
47	22.8654
47.2	26.3581
47.4	23.5686
47.6	24.612
47.8	30.7224
48	68.8014
48.2	73.9196
48.4	39.168
48.6	19.9522
48.8	28.549
49	24.1822
49.2	25.4756
49.4	26.2172
49.6	24.3781
49.8	24.6347
50	26.0125
50.2	21.8702
50.4	35.3062
50.6	28.9218
50.8	26.8986
51	26.9222
51.2	34.1456
51.4	32.8536
51.6	27.2003
51.8	25.1568
52	23.2674
52.2	19.8041
52.4	26.1386
52.6	50.3038
52.8	40.4456
53	27.2878
53.2	22.6626
53.4	26.5865
53.6	21.1943
53.8	23.2952
54	25.1075
54.2	23.8014
54.4	23.7053
54.6	17.9294
54.8	17.004
54.95	23.5776