File: desktop/XRD_data/CALCITE-ST.txt
5.0000	55.133
5.1800	55.656
5.3600	47.447
5.5400	60.050
5.7200	53.046
5.9000	83.425
6.0800	60.001
6.2600	71.047
6.4400	83.150
6.6200	55.653
6.8000	63.471
6.9800	57.126
7.1600	58.819
7.3400	53.817
7.5200	47.024
7.7000	46.007
7.8800	40.825
8.0600	43.098
8.2400	31.360
8.4200	61.539
8.6000	62.340
8.7800	42.300
8.9600	49.353
9.1400	57.228
9.3200	59.680
9.5000	71.424
9.6800	60.963
9.8600	67.791
10.040	61.396
10.220	76.463
10.400	56.414
10.580	85.262
10.760	85.302
10.940	87.837
11.120	66.064
11.300	72.237
11.480	70.520
11.660	90.151
11.840	73.470
12.020	82.220
12.200	71.142
12.380	99.833
12.560	103.39
12.740	132.47
12.920	100.17
13.100	107.74
13.280	91.973
13.460	104.80
13.640	108.65
13.820	110.24
14.000	106.84
14.180	105.05
14.360	103.60
14.540	97.928
14.720	104.08
14.900	117.43
15.080	112.20
15.260	97.600
15.440	114.71
15.620	114.01
15.800	144.25
15.980	101.85
16.160	155.16
16.340	123.48
16.520	108.48
16.700	106.22
16.880	132.46
17.060	105.31
17.240	114.42
17.420	86.878
17.600	119.00
17.780	91.785
17.960	136.79
18.140	115.09
18.320	106.59
18.500	135.58
18.680	118.66
18.860	137.27
19.040	119.20
19.220	126.29
19.400	126.07
19.580	118.16
19.760	88.187
19.940	125.08
20.120	121.88
20.300	117.60
20.480	97.767
20.660	108.82
20.840	106.16
21.020	126.32
21.200	121.80
21.380	133.65
21.560	116.50
21.740	104.24
21.920	116.94
22.100	101.51
22.280	94.755
22.460	118.46
22.640	97.044
22.820	97.150
23.000	126.05
23.180	107.21
23.360	113.14
23.540	124.25
23.720	116.51
23.900	111.48
24.080	108.07
24.260	101.60
24.440	96.467
24.620	112.75
24.800	104.45
24.980	107.92
25.160	112.50
25.340	108.75
25.520	103.22
25.700	105.99
25.880	75.633
26.060	99.249
26.240	105.08
26.420	107.71
26.600	108.99
26.780	81.985
26.960	83.209
27.140	96.678
27.320	83.882
27.500	92.358
27.680	82.147
27.860	95.898
28.040	90.563
28.220	99.485
28.400	160.44
28.580	234.01
28.760	129.34
28.940	88.924
29.120	83.761
29.300	77.341
29.480	53.966
29.660	82.122
29.840	76.127
30.020	83.998
30.200	67.757
30.380	59.461
30.560	74.121
30.740	72.239
30.920	66.679
31.100	74.935
31.280	60.405
31.460	61.675
31.640	61.648
31.820	67.085
32.000	80.867
32.180	73.211
32.360	67.691
32.540	62.102
32.720	71.557
32.900	74.429
33.080	99.915
33.260	72.889
33.440	68.482
33.620	71.172
33.800	73.881
33.980	91.339
34.160	64.428
34.340	69.537
34.520	67.888
34.700	77.090
34.880	60.298
35.060	61.182
35.240	68.768
35.420	67.747
35.600	72.344
35.780	82.720
35.960	58.561
36.140	109.35
36.320	199.70
36.500	1273.2
36.680	1673.4
36.860	372.35
37.040	85.794
37.220	81.102
37.400	80.379
37.580	68.692
37.760	83.381
37.940	64.873
38.120	55.494
38.300	50.431
38.480	61.000
38.660	62.298
38.840	44.669
39.020	63.573
39.200	83.584
39.380	61.358
39.560	53.919
39.740	70.064
39.920	33.968
40.100	57.204
40.280	60.787
40.460	57.291
40.640	65.297
40.820	49.867
41.000	67.802
41.180	44.856
41.360	53.682
41.540	72.667
41.720	37.893
41.900	50.135
42.080	66.671
42.260	69.018
42.440	47.564
42.620	55.412
42.800	66.423
42.980	52.073
43.160	51.752
43.340	39.619
43.520	37.382
43.700	42.460
43.880	58.697
44.060	38.059
44.240	62.505
44.420	69.547
44.600	68.847
44.780	126.11
44.960	219.92
45.140	135.57
45.320	43.931
45.500	39.797
45.680	50.853
45.860	42.619
46.040	56.465
46.220	46.297
46.400	45.139
46.580	40.332
46.760	42.850
46.940	49.913
47.120	31.501
47.300	45.939
47.480	33.919
47.660	61.987
47.840	52.368
48.020	55.278
48.200	36.590
48.380	47.030
48.560	48.185
48.740	57.515
48.920	54.189
49.100	94.447
49.280	314.91
49.460	284.88
49.640	101.50
49.820	49.791
50.000	40.453
50.180	44.306
50.360	70.372
50.540	49.438
50.720	53.917
50.900	34.670
51.080	48.245
51.260	44.733
51.440	32.794
51.620	44.305
51.800	41.370
51.980	54.893
52.160	51.227
52.340	53.867
52.520	51.273
52.700	33.668
52.880	33.482
53.060	53.525
53.240	29.918
53.420	49.653
53.600	38.342
53.780	57.720
53.960	93.814
54.140	257.61
54.320	186.40
54.500	70.601
54.680	26.944
54.860	34.854
55.040	37.100
55.220	29.278
55.400	57.353
55.580	52.400
55.760	37.604
55.940	39.696
56.120	35.087
56.300	34.477
56.480	25.550
56.660	71.105
56.840	37.713
57.020	43.851
57.200	31.681
57.380	17.854
57.560	30.591
57.740	34.775
57.920	66.133
58.100	32.563
58.280	59.752
58.460	33.942
58.640	54.495
58.820	52.737
58.940	38.211