File: desktop/XRD_data/calcite-ST2-film.txt
#InstrumentID: Terra.157
#FileName: /home/chemin/data/calcite-ST2/processed/calcite-ST2-film.plv
#SampleInfo:
#AcquisitionDate: 04/01/09 14:33:27
#IntegrationTime: 990 seconds
#GeometryParams: axisX = 1129 axisY = 128 axisZ = 1252 sensorAngle1 = 0.523599 sensorAngle3 = 0
#EnergyParams: splitThreshold = 3 CoKaPeak = 535 kBFilterIn = 1
5	42.4547
5.2	43.7059
5.4	38.8846
5.6	42.2285
5.8	43.2719
6	45.4775
6.2	48.5247
6.4	42.6899
6.6	43.307
6.8	42.3407
7	38.2066
7.2	39.5507
7.4	36.7668
7.6	42.8044
7.8	38.308
8	38.085
8.2	43.9578
8.4	38.5628
8.6	45.3801
8.8	41.4662
9	44.7031
9.2	40.9692
9.4	42.257
9.6	40.8971
9.8	46.5011
10	42.8216
10.2	43.2412
10.4	44.3272
10.6	40.8099
10.8	47.2516
11	42.314
11.2	48.7381
11.4	44.7081
11.6	45.8378
11.8	44.1182
12	49.2978
12.2	49.793
12.4	47.2658
12.6	50.6258
12.8	49.6088
13	46.7713
13.2	48.7452
13.4	46.1136
13.6	50.4835
13.8	50.4982
14	53.7827
14.2	50.9113
14.4	48.5542
14.6	49.4951
14.8	45.9445
15	48.9222
15.2	51.2207
15.4	46.0751
15.6	56.9008
15.8	49.9442
16	52.4038
16.2	53.3125
16.4	54.105
16.6	51.5682
16.8	52.1538
17	52.2881
17.2	50.1957
17.4	51.6645
17.6	58.2656
17.8	50.2461
18	53.5738
18.2	51.3299
18.4	55.5296
18.6	50.4469
18.8	52.5847
19	56.7365
19.2	50.7732
19.4	53.5755
19.6	49.4219
19.8	53.3276
20	51.3325
20.2	57.8087
20.4	51.3488
20.6	51.6502
20.8	54.1148
21	46.2067
21.2	45.9412
21.4	52.0951
21.6	51.0316
21.8	45.4982
22	53.1483
22.2	49.2083
22.4	44.2095
22.6	56.4477
22.8	51.5288
23	58.1691
23.2	47.3101
23.4	54.089
23.6	51.6907
23.8	48.4558
24	48.9218
24.2	51.1716
24.4	47.3066
24.6	51.0335
24.8	52.5866
25	48.6837
25.2	50.294
25.4	52.3426
25.6	49.0918
25.8	49.5682
26	49.5134
26.2	50.0952
26.4	49.12
26.6	58.5942
26.8	79.2193
27	61.7046
27.2	46.8376
27.4	43.041
27.6	47.3022
27.8	48.7496
28	48.0803
28.2	48.2497
28.4	42.9687
28.6	46.5892
28.8	44.3197
29	45.288
29.2	48.5123
29.4	47.5983
29.6	48.0013
29.8	45.0781
30	47.2589
30.2	47.8454
30.4	49.1237
30.6	42.131
30.8	43.9092
31	50.4289
31.2	52.692
31.4	39.4083
31.6	49.6286
31.8	47.8387
32	49.6484
32.2	45.3518
32.4	47.4442
32.6	47.1252
32.8	47.5048
33	41.2645
33.2	47.2804
33.4	49.096
33.6	50.5484
33.8	50.8635
34	78.2041
34.2	358.94
34.4	303.69
34.6	65.162
34.8	47.3706
35	51.7533
35.2	52.8185
35.4	42.591
35.6	47.8127
35.8	47.1558
36	42.9446
36.2	44.6936
36.4	46.6588
36.6	55.7278
36.8	52.1945
37	45.1633
37.2	48.7905
37.4	45.7278
37.6	42.8402
37.8	46.9072
38	51.1695
38.2	48.0469
38.4	46.2303
38.6	47.6803
38.8	41.0441
39	42.4529
39.2	45.9278
39.4	40.8932
39.6	42.4603
39.8	41.3076
40	42.0819
40.2	43.7216
40.4	43.9877
40.6	48.4321
40.8	39.4692
41	49.7128
41.2	44.8781
41.4	44.1079
41.6	38.2532
41.8	47.1825
42	92.3185
42.2	59.2959
42.4	52.6137
42.6	42.9222
42.8	42.4375
43	45.1558
43.2	36.833
43.4	39.9274
43.6	40.0244
43.8	43.7753
44	43.0448
44.2	40.1229
44.4	40.9821
44.6	43.4871
44.8	39.4662
45	39.6843
45.2	41.2794
45.4	45.9333
45.6	39.7893
45.8	44.9575
46	92.5661
46.2	100.108
46.4	42.9614
46.6	40.862
46.8	41.7594
47	45.7459
47.2	42.7884
47.4	42.9185
47.6	36.8942
47.8	46.1356
48	43.0941
48.2	34.8578
48.4	40.3234
48.6	35.4277
48.8	36.717
49	42.7587
49.2	34.6108
49.4	40.7037
49.6	41.5387
49.8	38.5151
50	42.9251
50.2	40.8795
50.4	67.2237
50.6	81.4295
50.8	57.4055
51	39.4297
51.2	39.5943
51.4	40.3343
51.6	39.296
51.8	40.0148
52	38.3849
52.2	39.6029
52.4	35.2113
52.6	35.8803
52.8	40.7198
53	33.538
53.2	36.6321
53.4	37.9809
53.6	31.7272
53.8	37.831
54	35.1008
54.2	28.8821
54.4	29.6458
54.6	29.6298
54.8	31.6066
54.95	38.832