File: desktop/XRD_data/dolomite-ST-thresh.txt
#InstrumentID: Terra.157
#DatasetName: dolomite-ST
#SampleInfo:
#AcquisitionDate: 04/04/09 00:36:31
#IntegrationTime: 990 seconds
#GeometryParams: axisX = 1129 axisY = 128 axisZ = 1252 sensorAngle1 = 0.523599 sensorAngle3 = 0
#EnergyParams: splitThreshold = 3 CoKaPeak = 539 kBFilterIn = 1
5	6.63887
5.2	5.93565
5.4	4.28706
5.6	5.20879
5.8	4.13928
6	7.47921
6.2	5.07779
6.4	10.0694
6.6	8.42439
6.8	7.12063
7	6.05921
7.2	5.33546
7.4	4.17149
7.6	3.05174
7.8	7.00122
8	4.69886
8.2	6.61715
8.4	6.17909
8.6	7.8842
8.8	3.27801
9	3.73905
9.2	6.58212
9.4	6.5666
9.6	8.55277
9.8	6.19835
10	6.20857
10.2	7.22552
10.4	7.74023
10.6	4.74477
10.8	8.54742
11	8.01873
11.2	5.9354
11.4	9.33081
11.6	5.49246
11.8	6.64656
12	10.6809
12.2	8.48495
12.4	6.47285
12.6	9.87669
12.8	9.02771
13	6.5757
13.2	13.6316
13.4	8.00272
13.6	5.84279
13.8	10.718
14	10.8194
14.2	9.8389
14.4	10.824
14.6	9.69726
14.8	8.48527
15	13.8168
15.2	10.7873
15.4	12.2951
15.6	14.4153
15.8	11.5145
16	10.8306
16.2	14.9428
16.4	20.338
16.6	10.379
16.8	10.8733
17	12.8925
17.2	14.813
17.4	11.4284
17.6	10.6806
17.8	8.6237
18	8.32548
18.2	12.1113
18.4	11.6774
18.6	13.379
18.8	12.4671
19	7.46505
19.2	12.2755
19.4	11.2324
19.6	12.3677
19.8	11.7973
20	10.0396
20.2	10.6224
20.4	14.2152
20.6	13.3168
20.8	9.98621
21	9.86061
21.2	12.628
21.4	12.2154
21.6	14.4043
21.8	15.627
22	10.4404
22.2	12.0065
22.4	13.8054
22.6	13.9927
22.8	12.511
23	9.20432
23.2	10.5876
23.4	13.2254
23.6	8.00064
23.8	9.63422
24	12.9079
24.2	10.5438
24.4	11.0365
24.6	8.26997
24.8	10.5252
25	5.77462
25.2	11.8832
25.4	13.3723
25.6	16.5029
25.8	13.1721
26	12.8221
26.2	12.5551
26.4	11.3291
26.6	7.75758
26.8	9.25857
27	10.9246
27.2	9.56858
27.4	11.5707
27.6	11.5723
27.8	12.2305
28	21.9647
28.2	17.2516
28.4	9.01466
28.6	8.03929
28.8	9.18247
29	9.29389
29.2	8.75832
29.4	5.7898
29.6	6.7149
29.8	7.46677
30	8.03622
30.2	6.51668
30.4	8.62182
30.6	7.69797
30.8	6.56211
31	6.22073
31.2	7.96931
31.4	5.65469
31.6	6.83656
31.8	6.57367
32	7.75156
32.2	12.4516
32.4	5.26817
32.6	10.3524
32.8	7.15395
33	11.1701
33.2	6.43831
33.4	6.08225
33.6	6.71209
33.8	8.07179
34	5.61771
34.2	7.57641
34.4	8.10037
34.6	7.03722
34.8	7.91304
35	6.88301
35.2	7.8467
35.4	7.59034
35.6	12.7317
35.8	35.1544
36	253.191
36.2	251.149
36.4	23.7175
36.6	8.28973
36.8	7.01415
37	4.72742
37.2	5.91158
37.4	6.76382
37.6	4.7738
37.8	7.29308
38	6.2652
38.2	4.65837
38.4	6.09661
38.6	5.90353
38.8	11.3199
39	15.7344
39.2	17.8701
39.4	10.5014
39.6	4.98165
39.8	6.56912
40	2.75146
40.2	4.53191
40.4	4.38435
40.6	7.65313
40.8	7.59328
41	10.2777
41.2	18.469
41.4	12.2148
41.6	7.86905
41.8	6.33085
42	2.93622
42.2	7.31479
42.4	2.97984
42.6	6.44554
42.8	4.76262
43	7.04538
43.2	3.22034
43.4	7.91148
43.6	25.5007
43.8	25.2488
44	6.51212
44.2	9.69364
44.4	6.6037
44.6	5.86581
44.8	9.81256
45	3.19772
45.2	6.26318
45.4	5.09521
45.6	3.61797
45.8	3.84833
46	9.52278
46.2	7.70089
46.4	2.40929
46.6	3.30536
46.8	4.27779
47	5.83148
47.2	2.73673
47.4	4.47525
47.6	5.41209
47.8	13.5958
48	42.5622
48.2	63.3439
48.4	17.9836
48.6	5.24127
48.8	4.71027
49	4.14192
49.2	4.02216
49.4	3.57154
49.6	3.77311
49.8	6.40854
50	3.69893
50.2	5.36603
50.4	3.91049
50.6	3.24049
50.8	4.36742
51	5.04249
51.2	15.6939
51.4	10.5787
51.6	6.95518
51.8	7.42953
52	3.76899
52.2	5.0421
52.4	7.68729
52.6	26.3205
52.8	20.722
53	6.53114
53.2	1.99767
53.4	5.55705
53.6	4.48844
53.8	6.87687
54	4.26132
54.2	6.60201
54.4	2.12949
54.6	4.08118
54.8	4.60475
54.95	2.32631