File: desktop/XRD_data/dolomite-ST-film-CROP_TEST.txt
#InstrumentID: Terra.157
#FileName: /home/chemin/data/dolomite-ST/processed/dolomite-ST-film.plv
#SampleInfo:
#AcquisitionDate: 04/04/09 00:36:31
#IntegrationTime: 990 seconds
#GeometryParams: axisX = 1129 axisY = 128 axisZ = 1252 sensorAngle1 = 0.523599 sensorAngle3 = 0
#EnergyParams: splitThreshold = 3 CoKaPeak = 539 kBFilterIn = 1
21	37.3803
21.1	35.0992
21.2	39.475
21.3	43.4435
21.4	42.3385
21.5	41.1067
21.6	39.9032
21.7	42.2553
21.8	42.3163
21.9	37.5546
22	38.6557
22.1	39.0208
22.2	38.8771
22.3	39.4345
22.4	43.1687
22.5	39.4937
22.6	39.4356
22.7	39.1359
22.8	40.28
22.9	42.5917
23	38.3883
23.1	40.5906
23.2	37.9057
23.3	41.3183
23.4	43.3354
23.5	42.9015
23.6	36.8851
23.7	43.5322
23.8	37.7496
23.9	39.3511
24	38.8169
24.1	42.778
24.2	38.3813
24.3	41.3597
24.4	38.7476
24.5	43.3128
24.6	34.6672
24.7	37.3126
24.8	38.7031
24.9	38.4673
25	33.2059
25.1	37.9617
25.2	37.9287
25.3	36.5979
25.4	41.6329
25.5	45.9515
25.6	50.3409
25.7	51.0447
25.8	48.7939
25.9	41.9245
26	40.703
26.1	35.8023
26.2	44.0132
26.3	35.4161
26.4	39.1358
26.5	32.6038
26.6	32.8198
26.7	33.117
26.8	36.5962
26.9	35.6129
27	38.3107
27.1	32.8244
27.2	36.5012
27.3	33.6645
27.4	39.3148
27.5	40.7776
27.6	40.5084
27.7	43.5825
27.8	42.4698
27.9	61.8827
28	70.2879
28.1	58.5819
28.2	50.9904
28.3	38.9854
28.4	35.232
28.5	34.5455
28.6	35.327
28.7	35.27
28.8	34.8423
28.9	36.5773
29	39.3505
29.1	32.8384
29.2	36.9648
29.3	30.4289
29.4	31.8534
29.5	40.5093
29.6	32.5971
29.7	34.5093
29.8	36.1936
29.9	34.8559
30	31.9923
30.1	32.7996
30.2	36.917
30.3	31.1013
30.4	35.923
30.5	32.2899
30.6	35.2698
30.7	28.5062
30.8	30.9798
30.9	37.8219
31	31.8337
31.1	32.0905
31.2	33.8204
31.3	34.0198
31.4	32.6913
31.5	31.132
31.6	32.598
31.7	33.341
31.8	31.5941
31.9	31.5462
32	34.1162
32.1	35.7817
32.2	38.8745
32.3	39.9437
32.4	34.6108
32.5	34.0778
32.6	40.7513
32.7	36.6779
32.8	31.6191
32.9	31.779
33	37.4597
33.1	27.1002
33.2	33.3109
33.3	31.586
33.4	31.8905
33.5	28.0699
33.6	35.6773
33.7	31.9357
33.8	33.7035
33.9	34.3463
34	33.6952
34.1	34.3222
34.2	34.8005
34.3	33.7788
34.4	32.5629
34.5	28.933
34.6	31.9854
34.7	29.9313
34.8	31.8939
34.9	34.5382
35	31.5499
35.1	38.4615
35.2	37.5391
35.3	36.3136
35.4	34.6662
35.5	40.0943
35.6	43.5676
35.7	54.2078
35.8	91.8835
35.9	239.775
36	483.357
36.1	638.42
36.2	482.032
36.3	216.726
36.4	74.2307
36.5	43.7617
36.6	39.1003
36.7	40.9316
36.8	33.7116
36.9	38.078
37	29.0514
37.1	32.6893
37.2	28.6738
37.3	30.6165
37.4	33.3465
37.5	33.5871
37.6	31.0468
37.7	32.3133
37.8	36.5697
37.9	35.1885
38	28.4685
38.1	28.6072
38.2	33.5385
38.3	31.3298
38.4	32.0068
38.5	28.4011
38.6	29.1785
38.7	31.135
38.8	39.1576
38.9	39.1546
39	48.9064
39.1	50.8193
39.2	58.397
39.3	52.1929
39.4	39.9195
39.5	29.2942
39.6	29.3418
39.7	29.3549
39.8	32.1263
39.9	33.0482
40	26.7864
40.1	29.6649
40.2	30.6909
40.3	33.7024
40.4	22.682
40.5	30.6602
40.6	31.2014
40.7	26.078
40.8	29.5051
40.9	27.9155
41	37.4132
41.1	44.641
41.2	58.226
41.3	56.3872
41.4	41.7768
41.5	32.1834
41.6	30.8242
41.7	28.9141
41.8	29.3291
41.9	33.3947
42	25.5356
42.1	30.6702
42.2	30.0703
42.3	27.8534
42.4	26.9544
42.5	31.8921
42.6	30.4146
42.7	28.7247
42.8	31.7097
42.9	27.9824
43	30.8283
43.1	28.4279
43.2	25.5589
43.3	32.9321
43.4	36.1803
43.5	48.3378
43.6	66.3917
43.7	78.7002
43.8	68.2129
43.9	39.9414
44	28.969