File: desktop/XRD_data/Mix1A-film.txt
#InstrumentID: BTX.359
#DatasetName: Mix1A
#SampleInfo:
#AcquisitionDate: 12/12/13 22:07:16
#IntegrationTime: 400 seconds
#GeometryParams: axisX = -68.5142 axisY = 134 axisZ = 1194.7 sensorAngle1 = -29.0823 sensorAngle3 = 0
#EnergyParams: splitThreshold = 12 CoKaPeak = 1281 kBFilterIn = 1
5	199.02
5.2	196.723
5.4	218.66
5.6	215.318
5.8	222.132
6	249.185
6.2	337.629
6.4	279.65
6.6	306.883
6.8	321.678
7	285.237
7.2	217.728
7.4	224.758
7.6	247.183
7.8	216.755
8	257.167
8.2	223.855
8.4	246.665
8.6	230.2
8.8	229.765
9	217.446
9.2	226.661
9.4	252.573
9.6	209.51
9.8	252.05
10	271.759
10.2	233.971
10.4	295.418
10.6	234.243
10.8	236.999
11	243.914
11.2	251.493
11.4	190.327
11.6	270.537
11.8	279.373
12	265.332
12.2	254.83
12.4	257.865
12.6	271.095
12.8	230.788
13	276.708
13.2	262.635
13.4	255.458
13.6	222.325
13.8	231.436
14	218.286
14.2	255.46
14.4	261.098
14.6	264.909
14.8	250.929
15	269.894
15.2	279.933
15.4	250.265
15.6	226.346
15.8	304.03
16	334.41
16.2	321.395
16.4	220.695
16.6	202.529
16.8	222.329
17	260.224
17.2	212.689
17.4	306.255
17.6	230.22
17.8	190.685
18	213.347
18.2	257.277
18.4	249.521
18.6	174.457
18.8	178.386
19	177.252
19.2	243.251
19.4	162.104
19.6	167.006
19.8	210.343
20	201.926
20.2	132.883
20.4	231.207
20.6	186.179
20.8	148.275
21	170.054
21.2	166.165
21.4	172.882
21.6	160.701
21.8	181.245
22	198.08
22.2	187.153
22.4	184.143
22.6	166.655
22.8	215.284
23	186.454
23.2	141.028
23.4	139.97
23.6	153.876
23.8	231.272
24	373.118
24.2	1582.37
24.4	1380.57
24.6	495.425
24.8	214.818
25	119.962
25.2	196.264
25.4	221.966
25.6	596.914
25.8	436.29
26	241.865
26.2	200.673
26.4	218.964
26.6	207.099
26.8	305.809
27	399.269
27.2	295.876
27.4	410.797
27.6	282.002
27.8	346.71
28	402.132
28.2	478.98
28.4	369.082
28.6	189.841
28.8	201.189
29	196.185
29.2	158.615
29.4	163.497
29.6	338.112
29.8	444.063
30	268.985
30.2	182.827
30.4	234.703
30.6	440.527
30.8	1607.75
31	6459.76
31.2	3322.86
31.4	608.263
31.6	675.253
31.8	654.723
32	984.897
32.2	680.413
32.4	712.234
32.6	715.846
32.8	467.251
33	367.381
33.2	179.77
33.4	161.575
33.6	157.97
33.8	155.943
34	126.65
34.2	234.807
34.4	261.826
34.6	158.696
34.8	188.107
35	313.847
35.2	389.332
35.4	280.593
35.6	267.613
35.8	286.09
36	244.582
36.2	169.412
36.4	145.62
36.6	129.278
36.8	107.233
37	95.8274
37.2	106.198
37.4	142.911
37.6	164.321
37.8	183.461
38	121.314
38.2	92.6556
38.4	75.916
38.6	112.566
38.8	89.6196
39	68.415
39.2	101.809
39.4	90.8679
39.6	173.585
39.8	202.6
40	183.776
40.2	158.849
40.4	184.331
40.6	159.704
40.8	208.756
41	237.791
41.2	156.937
41.4	156.577
41.6	201.453
41.8	134.795
42	105.368
42.2	109.194
42.4	113.469
42.6	510.749
42.8	446.258
43	189.31
43.2	187.244
43.4	168.346
43.6	138.654
43.8	157.098
44	125.731
44.2	119.562
44.4	119.928
44.6	110.758
44.8	114.31
45	147.882
45.2	155.716
45.4	126.228
45.6	117.767
45.8	87.0815
46	295.76
46.2	491.393
46.4	173.008
46.6	82.9114
46.8	144.956
47	201.855
47.2	246.668
47.4	163.06
47.6	107.361
47.8	82.5196
48	89.6392
48.2	83.164
48.4	100.561
48.6	125.826
48.8	191.788
49	190.156
49.2	120.709
49.4	111.929
49.6	309.364
49.8	315.176
50	172.047
50.2	86.7305
50.4	77.5926
50.6	122.225
50.8	102.317
51	54.5261
51.2	122.65
51.4	71.136
51.6	70.646
51.8	105.262
52	58.9808
52.2	100.005
52.4	112.116
52.6	76.987
52.8	91.0183
53	113.255
53.2	126.099
53.4	128.169
53.6	222.546
53.8	243.795
54	90.3466
54.2	90.3233
54.4	88.9872
54.6	120.358
54.8	109.233
54.9	123.944