File: desktop/XRD_data/Mix3C-film.txt
#InstrumentID: BTX.359
#DatasetName: Mix3C
#SampleInfo:
#AcquisitionDate: 12/12/13 18:06:41
#IntegrationTime: 400 seconds
#GeometryParams: axisX = -68.5142 axisY = 134 axisZ = 1194.7 sensorAngle1 = -29.0823 sensorAngle3 = 0
#EnergyParams: splitThreshold = 12 CoKaPeak = 1294 kBFilterIn = 1
5	318.062
5.2	266.046
5.4	262.651
5.6	296.481
5.8	323.733
6	327.774
6.2	399.815
6.4	394.537
6.6	382.046
6.8	381.708
7	362.857
7.2	342.639
7.4	264.522
7.6	320.001
7.8	242.072
8	300.617
8.2	252.887
8.4	271.322
8.6	255.638
8.8	255.818
9	321.09
9.2	345.929
9.4	305.776
9.6	354.472
9.8	540.827
10	601.549
10.2	592.707
10.4	372.049
10.6	298.661
10.8	307.178
11	285.546
11.2	302.426
11.4	335.661
11.6	370.015
11.8	316.726
12	323.072
12.2	389.069
12.4	315.886
12.6	342.114
12.8	291.705
13	288.591
13.2	342.589
13.4	269.419
13.6	306.369
13.8	250.061
14	283.123
14.2	298.385
14.4	206.188
14.6	275.218
14.8	336.586
15	295.928
15.2	265.398
15.4	300.488
15.6	283.987
15.8	334.741
16	289.321
16.2	248.128
16.4	322.066
16.6	250.4
16.8	231.674
17	275.443
17.2	336.822
17.4	226.019
17.6	239.011
17.8	231.88
18	215.067
18.2	249.732
18.4	246.402
18.6	243.156
18.8	273.515
19	238.231
19.2	208.414
19.4	216.102
19.6	216.943
19.8	196.025
20	240.988
20.2	239.357
20.4	244.546
20.6	195.727
20.8	208.614
21	335.402
21.2	224.722
21.4	243.503
21.6	149.444
21.8	209.287
22	200.182
22.2	264.964
22.4	243.947
22.6	230.698
22.8	226.435
23	247.778
23.2	198.889
23.4	198.638
23.6	212.218
23.8	190.006
24	407.245
24.2	1949.08
24.4	1176.65
24.6	266.163
24.8	211.148
25	168.089
25.2	163.892
25.4	220.95
25.6	406.816
25.8	300.942
26	195.175
26.2	174.584
26.4	195.427
26.6	213.566
26.8	208.675
27	158.592
27.2	190.691
27.4	251.315
27.6	205.838
27.8	190.382
28	233.783
28.2	369.859
28.4	280.139
28.6	163.893
28.8	155.131
29	136.036
29.2	182.194
29.4	160.462
29.6	184.185
29.8	226.173
30	158.792
30.2	237.071
30.4	372.431
30.6	446
30.8	2156.48
31	9332.54
31.2	5028.55
31.4	378.266
31.6	342.15
31.8	317.14
32	230.705
32.2	316.47
32.4	481.015
32.6	525.072
32.8	375.195
33	332.603
33.2	303.148
33.4	227.649
33.6	225.809
33.8	150.175
34	140.004
34.2	144.495
34.4	181.99
34.6	164.482
34.8	143.759
35	167.985
35.2	191.452
35.4	209.279
35.6	293.735
35.8	214.118
36	136.699
36.2	130.463
36.4	131.527
36.6	124.464
36.8	110.73
37	126.991
37.2	138.967
37.4	141.754
37.6	133.355
37.8	108.003
38	157.665
38.2	172.129
38.4	95.2699
38.6	142.834
38.8	200.695
39	116.917
39.2	139.948
39.4	157.846
39.6	237.798
39.8	300.898
40	174.505
40.2	129.638
40.4	171.237
40.6	218.888
40.8	163.486
41	250.581
41.2	218.17
41.4	158.94
41.6	128.481
41.8	119.041
42	118.431
42.2	128.777
42.4	179.288
42.6	551.203
42.8	654.565
43	302.243
43.2	238.728
43.4	103.048
43.6	125.984
43.8	120.714
44	107.658
44.2	132.483
44.4	74.897
44.6	102.454
44.8	107.181
45	159.092
45.2	152.653
45.4	148.18
45.6	109.462
45.8	188.945
46	445.375
46.2	649.556
46.4	250.691
46.6	127.123
46.8	166.615
47	276.042
47.2	378.216
47.4	188.32
47.6	118.844
47.8	101.792
48	138.685
48.2	157.754
48.4	171.337
48.6	113.513
48.8	136.495
49	144.857
49.2	118.75
49.4	126.638
49.6	429.741
49.8	472.794
50	168.59
50.2	154.07
50.4	63.8112
50.6	85.1865
50.8	71.9222
51	115.016
51.2	46.8869
51.4	112.115
51.6	132.029
51.8	82.8999
52	82.4941
52.2	87.681
52.4	118.196
52.6	107.738
52.8	76.452
53	123.158
53.2	114.954
53.4	135.793
53.6	257.427
53.8	261.929
54	98.5995
54.2	62.6831
54.4	79.0135
54.6	66.6408
54.8	71.1733
54.9	80.0574