File: desktop/XRD_data/Mix3D-film.txt
#InstrumentID: BTX.359
#DatasetName: Mix3D
#SampleInfo:
#AcquisitionDate: 12/12/13 18:20:28
#IntegrationTime: 400 seconds
#GeometryParams: axisX = -68.5142 axisY = 134 axisZ = 1194.7 sensorAngle1 = -29.0823 sensorAngle3 = 0
#EnergyParams: splitThreshold = 12 CoKaPeak = 1294 kBFilterIn = 1
5	444.951
5.2	299.298
5.4	357.889
5.6	391.968
5.8	427.613
6	480.461
6.2	536.91
6.4	581.185
6.6	515.117
6.8	519.621
7	471.937
7.2	419.805
7.4	408.327
7.6	339.977
7.8	379.71
8	393.9
8.2	350.578
8.4	372.875
8.6	374.634
8.8	382.126
9	392.815
9.2	364.823
9.4	379.342
9.6	509.08
9.8	735.655
10	1057.59
10.2	926.37
10.4	599.04
10.6	477.194
10.8	350.113
11	351.712
11.2	427.534
11.4	505.319
11.6	461.559
11.8	325.616
12	449.806
12.2	559.537
12.4	437.195
12.6	346.982
12.8	364.941
13	331.042
13.2	388.616
13.4	380.514
13.6	340.148
13.8	364.61
14	332.529
14.2	318.5
14.4	314.308
14.6	341.659
14.8	368.781
15	331.63
15.2	343.907
15.4	330.868
15.6	352.135
15.8	330.351
16	477.974
16.2	435.734
16.4	324.796
16.6	370.014
16.8	313.566
17	346.933
17.2	389.337
17.4	364.602
17.6	294.209
17.8	299.257
18	296.454
18.2	258.337
18.4	339.374
18.6	254.764
18.8	317.514
19	309.945
19.2	298.619
19.4	288.374
19.6	259.211
19.8	296.651
20	342.981
20.2	261.563
20.4	315.875
20.6	303.167
20.8	265.749
21	449.214
21.2	313.098
21.4	250.595
21.6	265.328
21.8	299.749
22	262.519
22.2	390.608
22.4	397.672
22.6	317.589
22.8	316.775
23	362.845
23.2	280.582
23.4	310.401
23.6	218.325
23.8	257.412
24	323.405
24.2	676.714
24.4	521.356
24.6	321.879
24.8	261.702
25	254.436
25.2	263.975
25.4	379.6
25.6	892.312
25.8	669.068
26	333.235
26.2	292.24
26.4	289.275
26.6	366.781
26.8	356.945
27	338.965
27.2	316.172
27.4	494.117
27.6	325.795
27.8	283.093
28	456.475
28.2	741.333
28.4	536.39
28.6	293.051
28.8	240.628
29	231.453
29.2	257.078
29.4	263.177
29.6	400.413
29.8	280.926
30	226.186
30.2	400.763
30.4	421.605
30.6	717.178
30.8	1319.82
31	3132.36
31.2	1586.38
31.4	345.985
31.6	331.107
31.8	452.652
32	359.368
32.2	549.265
32.4	1022.82
32.6	1183.65
32.8	771.071
33	672.134
33.2	565.791
33.4	447.382
33.6	321.632
33.8	193.419
34	206.745
34.2	262.714
34.4	255.278
34.6	269.094
34.8	221.979
35	320.163
35.2	494.698
35.4	549.265
35.6	607.542
35.8	350.552
36	282.298
36.2	180.804
36.4	238.32
36.6	219.63
36.8	267.306
37	190.288
37.2	217.824
37.4	182.909
37.6	223.794
37.8	189.714
38	281.278
38.2	307.359
38.4	259.344
38.6	435.657
38.8	626.734
39	169.756
39.2	245.342
39.4	311.847
39.6	552.725
39.8	788.584
40	482.38
40.2	194.366
40.4	311.197
40.6	300.618
40.8	315.263
41	496.437
41.2	578.053
41.4	364.478
41.6	229.312
41.8	166.226
42	187.435
42.2	224.385
42.4	224.457
42.6	328.437
42.8	570.436
43	571.011
43.2	288.965
43.4	284.058
43.6	193.882
43.8	195.447
44	217.072
44.2	219.024
44.4	146.709
44.6	130.356
44.8	166.582
45	265.32
45.2	271.035
45.4	287.977
45.6	214.465
45.8	285.568
46	430.122
46.2	430.974
46.4	264.551
46.6	181.126
46.8	192.302
47	245.277
47.2	217.03
47.4	146.1
47.6	216.012
47.8	179.029
48	192.205
48.2	327.352
48.4	293.622
48.6	205.858
48.8	179.365
49	288.555
49.2	270.228
49.4	167.116
49.6	230.299
49.8	313.681
50	170.515
50.2	124.894
50.4	158.949
50.6	155.302
50.8	123.671
51	161.75
51.2	106.194
51.4	146.016
51.6	146.826
51.8	124.504
52	156.984
52.2	201.532
52.4	248.114
52.6	196.082
52.8	261.205
53	254.668
53.2	125.592
53.4	189.633
53.6	232.101
53.8	167.916
54	127.302
54.2	126.402
54.4	147.472
54.6	120.498
54.8	114.774
54.9	148.44