File: desktop/XRD_data/Mix5A-film.txt
#InstrumentID: BTX.359
#DatasetName: Mix5A
#SampleInfo:
#AcquisitionDate: 12/12/13 17:00:17
#IntegrationTime: 400 seconds
#GeometryParams: axisX = -68.5142 axisY = 134 axisZ = 1194.7 sensorAngle1 = -29.0823 sensorAngle3 = 0
#EnergyParams: splitThreshold = 12 CoKaPeak = 1293 kBFilterIn = 1
5	271.089
5.2	275.351
5.4	236.61
5.6	301.369
5.8	329.809
6	335.896
6.2	362.434
6.4	492.457
6.6	410.732
6.8	375.006
7	378.832
7.2	365.563
7.4	324.859
7.6	288.645
7.8	285.606
8	274.183
8.2	269.894
8.4	311.879
8.6	349.395
8.8	295.772
9	274.362
9.2	281.766
9.4	263.012
9.6	275.906
9.8	281.986
10	303.073
10.2	247.332
10.4	289.082
10.6	279.253
10.8	303.407
11	266.176
11.2	305.957
11.4	318.736
11.6	348.604
11.8	309.181
12	382.238
12.2	344.98
12.4	348.244
12.6	301.033
12.8	312.243
13	255.462
13.2	268.187
13.4	282.444
13.6	364.389
13.8	268.591
14	283.138
14.2	245.679
14.4	280.952
14.6	257.451
14.8	318.642
15	310.496
15.2	307.883
15.4	276.896
15.6	335.958
15.8	304.189
16	370.345
16.2	395.205
16.4	255.148
16.6	217.653
16.8	291.687
17	228.402
17.2	305.747
17.4	290.922
17.6	260.054
17.8	283.646
18	263.707
18.2	306.851
18.4	253.308
18.6	217.711
18.8	228.798
19	242.473
19.2	219.459
19.4	249.197
19.6	249.988
19.8	246.521
20	211.93
20.2	237.33
20.4	226.268
20.6	196.972
20.8	223.895
21	273.844
21.2	259.665
21.4	269.023
21.6	176.083
21.8	204.948
22	174.4
22.2	189.404
22.4	222.121
22.6	238.245
22.8	184.301
23	218.104
23.2	219.204
23.4	233.971
23.6	240.993
23.8	223.057
24	386.225
24.2	1299.2
24.4	1049.82
24.6	236.155
24.8	199.717
25	192.867
25.2	246.987
25.4	307.742
25.6	701.305
25.8	565.512
26	185.095
26.2	178.8
26.4	184.99
26.6	206.881
26.8	277.574
27	216.681
27.2	231.078
27.4	369.895
27.6	263.8
27.8	196.231
28	333.437
28.2	620.39
28.4	492.419
28.6	149.271
28.8	170.121
29	163.864
29.2	182.758
29.4	222.942
29.6	269.243
29.8	249.166
30	159.508
30.2	194.428
30.4	252.156
30.6	326.473
30.8	1393.73
31	6018.69
31.2	3841.21
31.4	421.584
31.6	302.186
31.8	256.61
32	252.731
32.2	489.781
32.4	811.46
32.6	1214.24
32.8	701.764
33	515.212
33.2	339.791
33.4	307.613
33.6	226.34
33.8	144.239
34	95.4907
34.2	140.876
34.4	157.9
34.6	139.011
34.8	165.434
35	271.673
35.2	320.701
35.4	314.136
35.6	365.743
35.8	211.163
36	171.687
36.2	157.873
36.4	254.233
36.6	220.756
36.8	187.327
37	178.972
37.2	107.697
37.4	140.687
37.6	123.785
37.8	158.268
38	105.081
38.2	208.91
38.4	291.439
38.6	488.698
38.8	310.686
39	146.526
39.2	138.138
39.4	111.928
39.6	150.612
39.8	114.463
40	115.594
40.2	136.495
40.4	185.256
40.6	180.047
40.8	242.321
41	260.218
41.2	236.79
41.4	161.429
41.6	167.367
41.8	131.947
42	102.199
42.2	100.24
42.4	143.813
42.6	397.667
42.8	520.603
43	274.658
43.2	279.256
43.4	308.787
43.6	126.59
43.8	155.24
44	141.32
44.2	172.182
44.4	138.998
44.6	109.01
44.8	116.341
45	181.295
45.2	158.135
45.4	178.395
45.6	147.752
45.8	98.073
46	322.385
46.2	515.97
46.4	250.988
46.6	89.6789
46.8	161.062
47	219.488
47.2	226.734
47.4	175.314
47.6	195.934
47.8	221.333
48	61.3165
48.2	141.358
48.4	116.154
48.6	98.5322
48.8	95.5869
49	162.795
49.2	132.721
49.4	114.859
49.6	248.456
49.8	334.706
50	165.14
50.2	105.332
50.4	70.1657
50.6	109.231
50.8	90.0508
51	114.25
51.2	65.6151
51.4	31.4992
51.6	90.7067
51.8	87.7452
52	92.729
52.2	139.652
52.4	68.1673
52.6	86.9793
52.8	103.46
53	111.984
53.2	77.8239
53.4	104.417
53.6	234.958
53.8	216.299
54	97.6084
54.2	64.348
54.4	77.414
54.6	110.539
54.8	83.0639
54.9	65.4026