File: XRD_data/Mix1D-film.txt
#InstrumentID: BTX.359
#DatasetName: Mix1D
#SampleInfo:
#AcquisitionDate: 12/12/13 23:28:23
#IntegrationTime: 400 seconds
#GeometryParams: axisX = -68.5142 axisY = 134 axisZ = 1194.7 sensorAngle1 = -29.0823 sensorAngle3 = 0
#EnergyParams: splitThreshold = 12 CoKaPeak = 1280 kBFilterIn = 1
5	203.971
5.2	185.033
5.4	216.014
5.6	189.483
5.8	201.375
6	248.934
6.2	322.328
6.4	319.553
6.6	307.541
6.8	264.191
7	223.136
7.2	196.212
7.4	245.613
7.6	223.805
7.8	200.975
8	204.919
8.2	229.646
8.4	236.905
8.6	233.426
8.8	180.991
9	231.38
9.2	220.777
9.4	195.252
9.6	266.624
9.8	210.056
10	250.705
10.2	211.6
10.4	228.645
10.6	228.99
10.8	199.124
11	246.958
11.2	222.442
11.4	269.651
11.6	238.819
11.8	264.351
12	235.802
12.2	234.376
12.4	169.107
12.6	214.756
12.8	261.257
13	195.779
13.2	262.465
13.4	241.748
13.6	201.704
13.8	262.153
14	248.601
14.2	192.823
14.4	173.166
14.6	231.806
14.8	228.974
15	255.359
15.2	225.493
15.4	183.235
15.6	253.413
15.8	293.009
16	322.732
16.2	282.864
16.4	186.479
16.6	217.645
16.8	147.9
17	227.422
17.2	247.605
17.4	226.862
17.6	207.928
17.8	293.593
18	184.74
18.2	175.284
18.4	213.333
18.6	205.984
18.8	196.887
19	168.583
19.2	198.978
19.4	148.751
19.6	152.473
19.8	222.72
20	170.63
20.2	164.779
20.4	185.937
20.6	152.275
20.8	122.956
21	183.97
21.2	180.939
21.4	156.696
21.6	162.82
21.8	207.491
22	136.922
22.2	124.959
22.4	154.534
22.6	156.516
22.8	139.315
23	169.946
23.2	193.048
23.4	125.939
23.6	149.234
23.8	156.979
24	318.618
24.2	1414.62
24.4	1403.86
24.6	454.025
24.8	168.072
25	180.133
25.2	188.405
25.4	172.104
25.6	431.837
25.8	396.382
26	274.662
26.2	156.646
26.4	197.755
26.6	155.066
26.8	251.919
27	293.046
27.2	264.607
27.4	269.202
27.6	241.908
27.8	259.721
28	342.494
28.2	426.726
28.4	303.045
28.6	215.246
28.8	231.481
29	148.435
29.2	140.394
29.4	176.214
29.6	284.354
29.8	384.108
30	254.489
30.2	162.966
30.4	285.016
30.6	361.071
30.8	1570.32
31	7318.88
31.2	4121.84
31.4	679.501
31.6	585.886
31.8	562.576
32	921.919
32.2	672.394
32.4	670.444
32.6	713.488
32.8	407.086
33	298.371
33.2	177.259
33.4	123.646
33.6	155.569
33.8	104.912
34	82.4407
34.2	189.898
34.4	203.431
34.6	169.482
34.8	149.316
35	252.085
35.2	330.807
35.4	271.15
35.6	210.623
35.8	273.59
36	335.166
36.2	151.519
36.4	149.232
36.6	156.947
36.8	97.9434
37	120.685
37.2	89.5676
37.4	104.338
37.6	118.401
37.8	128.142
38	101.287
38.2	78.8248
38.4	87.4068
38.6	97.0545
38.8	66.8331
39	56.3646
39.2	75.1057
39.4	68.511
39.6	118.36
39.8	176.129
40	144.765
40.2	154.949
40.4	140.351
40.6	130.982
40.8	163.279
41	182.158
41.2	156.655
41.4	156.183
41.6	161.829
41.8	105.888
42	148.86
42.2	77.1662
42.4	167.078
42.6	464.791
42.8	426.268
43	219.71
43.2	171.77
43.4	149.098
43.6	126.272
43.8	120.249
44	108.309
44.2	125.68
44.4	116.958
44.6	68.7
44.8	79.5929
45	109.51
45.2	123.255
45.4	80.8421
45.6	84.2024
45.8	68.9649
46	270.871
46.2	501.072
46.4	273.64
46.6	41.4573
46.8	96.7319
47	205.552
47.2	292.78
47.4	148.304
47.6	96.7475
47.8	92.1957
48	77.1997
48.2	53.4935
48.4	79.5371
48.6	92.1309
48.8	159.515
49	191.209
49.2	130.119
49.4	117.689
49.6	231.979
49.8	397.291
50	197.069
50.2	98.5443
50.4	110.108
50.6	156.724
50.8	78.4485
51	81.9576
51.2	138.824
51.4	67.6494
51.6	107.744
51.8	45.8478
52	59.7049
52.2	107.137
52.4	63.8487
52.6	68.7241
52.8	77.4879
53	90.5703
53.2	92.0294
53.4	132.848
53.6	307.146
53.8	247.109
54	109.481
54.2	96.3855
54.4	87.3905
54.6	87.7579
54.8	77.2941
54.9	62.2489