File: XRD_data/Mix1C-film.txt
#InstrumentID: BTX.359
#DatasetName: Mix1C
#SampleInfo:
#AcquisitionDate: 12/12/13 23:00:30
#IntegrationTime: 400 seconds
#GeometryParams: axisX = -68.5142 axisY = 134 axisZ = 1194.7 sensorAngle1 = -29.0823 sensorAngle3 = 0
#EnergyParams: splitThreshold = 12 CoKaPeak = 1280 kBFilterIn = 1
5	236.819
5.2	207.581
5.4	215.151
5.6	182.431
5.8	193.913
6	288.732
6.2	337.332
6.4	309.386
6.6	252.463
6.8	300.726
7	276.362
7.2	261.983
7.4	209.078
7.6	185.98
7.8	197.41
8	241.734
8.2	250.898
8.4	209.389
8.6	154.477
8.8	227.193
9	289.228
9.2	198.844
9.4	204.388
9.6	246.927
9.8	230.056
10	319.296
10.2	225.416
10.4	225.3
10.6	219.76
10.8	211.403
11	252.125
11.2	218.937
11.4	219.098
11.6	239.495
11.8	210.407
12	273.364
12.2	265.059
12.4	199.404
12.6	258.411
12.8	289.544
13	305.413
13.2	255.402
13.4	270.689
13.6	245.354
13.8	227.017
14	227.008
14.2	192.624
14.4	178.206
14.6	238.576
14.8	241.047
15	211.677
15.2	249.301
15.4	191.954
15.6	229.724
15.8	300.293
16	345.668
16.2	304.383
16.4	210.485
16.6	221.972
16.8	198.199
17	193.254
17.2	290.581
17.4	238.608
17.6	194.359
17.8	220.594
18	206.608
18.2	201.416
18.4	189.399
18.6	168.622
18.8	150.257
19	180.402
19.2	171.823
19.4	193.923
19.6	191.157
19.8	200.769
20	208.577
20.2	186.909
20.4	155.056
20.6	142.654
20.8	142.387
21	154.236
21.2	158.138
21.4	185.746
21.6	184.197
21.8	173.333
22	167.707
22.2	129.876
22.4	141.989
22.6	179.752
22.8	124.13
23	189.986
23.2	175.417
23.4	147.941
23.6	196.17
23.8	215.027
24	420.789
24.2	1748.6
24.4	1382.4
24.6	328.971
24.8	157.577
25	189.218
25.2	175.522
25.4	206.898
25.6	583.682
25.8	430.067
26	216.303
26.2	188.881
26.4	146.914
26.6	186.949
26.8	256.767
27	333.245
27.2	287.486
27.4	343.063
27.6	222.84
27.8	273.812
28	410.549
28.2	557.287
28.4	349.049
28.6	165.926
28.8	150.653
29	149.797
29.2	157.06
29.4	174.619
29.6	337.371
29.8	316.965
30	260.63
30.2	225.384
30.4	198.254
30.6	428.481
30.8	1754.09
31	8428.86
31.2	3998.18
31.4	596.229
31.6	498.91
31.8	438.423
32	574.476
32.2	590.4
32.4	815.503
32.6	970.192
32.8	487.003
33	355.164
33.2	201.334
33.4	151.19
33.6	138.868
33.8	143.783
34	124.457
34.2	156.805
34.4	214.586
34.6	148.805
34.8	157.537
35	200.279
35.2	377.657
35.4	236.878
35.6	261.821
35.8	235.386
36	213.541
36.2	176.381
36.4	168.473
36.6	103.009
36.8	78.661
37	160.562
37.2	119.081
37.4	117.774
37.6	122.938
37.8	150.89
38	114.058
38.2	48.9621
38.4	82.5093
38.6	99.7061
38.8	69.6819
39	61.7529
39.2	86.683
39.4	80.3425
39.6	129.046
39.8	135.341
40	158.678
40.2	131.53
40.4	137.347
40.6	137.086
40.8	181.768
41	198.647
41.2	118.026
41.4	143.403
41.6	99.7395
41.8	125.5
42	102.22
42.2	88.4541
42.4	165.627
42.6	507.608
42.8	458.887
43	235.548
43.2	177.552
43.4	119.556
43.6	84.4714
43.8	116.252
44	103.231
44.2	125.876
44.4	88.5194
44.6	50.1145
44.8	106.396
45	91.694
45.2	105.398
45.4	123.355
45.6	81.4694
45.8	124.983
46	264.066
46.2	541.299
46.4	169.243
46.6	84.6031
46.8	110.007
47	204.914
47.2	325.107
47.4	139.619
47.6	101.234
47.8	61.0133
48	108.86
48.2	92.4204
48.4	94.5053
48.6	93.6276
48.8	144.368
49	131.564
49.2	141.394
49.4	110.51
49.6	390.796
49.8	405.251
50	173.834
50.2	130.249
50.4	90.3084
50.6	79.1145
50.8	98.2219
51	98.1152
51.2	84.477
51.4	79.8695
51.6	83.3132
51.8	87.6768
52	59.2045
52.2	53.9832
52.4	87.7583
52.6	81.3365
52.8	130.03
53	136.162
53.2	125.57
53.4	119.821
53.6	332.619
53.8	262.818
54	150.367
54.2	83.5722
54.4	95.6728
54.6	87.5346
54.8	91.6214
54.9	99.3836