File: XRD_data/Mix1B-film.txt
#InstrumentID: BTX.359
#DatasetName: Mix1B
#SampleInfo:
#AcquisitionDate: 12/12/13 22:39:35
#IntegrationTime: 400 seconds
#GeometryParams: axisX = -68.5142 axisY = 134 axisZ = 1194.7 sensorAngle1 = -29.0823 sensorAngle3 = 0
#EnergyParams: splitThreshold = 12 CoKaPeak = 1280 kBFilterIn = 1
5	206.031
5.2	213.435
5.4	211.364
5.6	254.518
5.8	277.312
6	283.071
6.2	392.109
6.4	342.439
6.6	358.241
6.8	351.471
7	292.752
7.2	305.752
7.4	211.609
7.6	191.944
7.8	223.168
8	248.784
8.2	227.705
8.4	211.579
8.6	294.134
8.8	224.935
9	255.774
9.2	299.188
9.4	272.624
9.6	247.504
9.8	203.572
10	245.367
10.2	285.982
10.4	253.265
10.6	240.828
10.8	210.23
11	214.041
11.2	221.873
11.4	241.146
11.6	221.368
11.8	285.752
12	268.836
12.2	168.79
12.4	290.192
12.6	271.352
12.8	246.744
13	323.752
13.2	257.975
13.4	239.429
13.6	277.541
13.8	245.507
14	245.794
14.2	305.772
14.4	233.77
14.6	253.121
14.8	215.585
15	220.142
15.2	293.079
15.4	246.388
15.6	260.988
15.8	248.879
16	349.819
16.2	280.733
16.4	239.087
16.6	281.056
16.8	261.389
17	234.248
17.2	253.869
17.4	319.784
17.6	234.385
17.8	223.743
18	212.063
18.2	204.262
18.4	247.51
18.6	226.297
18.8	204.729
19	231.032
19.2	226.786
19.4	183.215
19.6	195.6
19.8	179.685
20	174.111
20.2	178.605
20.4	175.284
20.6	177.974
20.8	183.526
21	169.647
21.2	224.357
21.4	151.964
21.6	223.299
21.8	170.213
22	163.392
22.2	176.084
22.4	161.236
22.6	149.751
22.8	187.343
23	132.535
23.2	176.495
23.4	168.806
23.6	150.809
23.8	177.755
24	316.562
24.2	1624.4
24.4	1247.35
24.6	311.166
24.8	129.783
25	193.214
25.2	176.881
25.4	227.403
25.6	695.676
25.8	591.491
26	213.462
26.2	183.324
26.4	155.837
26.6	148.742
26.8	235.862
27	281.805
27.2	271.75
27.4	376.051
27.6	223.435
27.8	230.817
28	409.018
28.2	590.185
28.4	436.935
28.6	245.072
28.8	142.822
29	120.077
29.2	158.908
29.4	164.176
29.6	296.258
29.8	332.337
30	164.825
30.2	168.714
30.4	218.662
30.6	349.424
30.8	1508.25
31	7507.98
31.2	4672.03
31.4	498.116
31.6	386.345
31.8	301.219
32	509.397
32.2	653.686
32.4	911.521
32.6	1052.61
32.8	620.976
33	443.293
33.2	205.522
33.4	170.151
33.6	115.642
33.8	80.9142
34	154.491
34.2	161.354
34.4	163.84
34.6	161.61
34.8	174.467
35	197.248
35.2	355.015
35.4	246.361
35.6	273.262
35.8	253.262
36	192.768
36.2	114.496
36.4	193.57
36.6	130.846
36.8	118.71
37	134.32
37.2	122.185
37.4	148.94
37.6	134.855
37.8	138.122
38	106.36
38.2	140.224
38.4	79.2451
38.6	101.187
38.8	82.3592
39	84.7688
39.2	119.693
39.4	84.3596
39.6	103.427
39.8	126.267
40	77.4865
40.2	92.0877
40.4	148.196
40.6	120.656
40.8	219.419
41	188.345
41.2	149.038
41.4	117.827
41.6	147.746
41.8	126.613
42	104.04
42.2	98.9561
42.4	130.156
42.6	433.352
42.8	508.396
43	258.428
43.2	120.759
43.4	105.045
43.6	91.7167
43.8	134.581
44	109.058
44.2	128.667
44.4	105.967
44.6	82.409
44.8	89.5996
45	105.696
45.2	107.092
45.4	110.229
45.6	129.572
45.8	125.954
46	286.219
46.2	629.192
46.4	249.185
46.6	89.5781
46.8	100.898
47	200.11
47.2	261.477
47.4	131.352
47.6	80.8909
47.8	87.1159
48	90.2072
48.2	86.9143
48.4	159.873
48.6	96.9833
48.8	105.891
49	158.349
49.2	122.11
49.4	85.0367
49.6	327.532
49.8	428.66
50	202.233
50.2	108.451
50.4	94.7659
50.6	125.146
50.8	60.9045
51	122.954
51.2	88.1528
51.4	78.8353
51.6	46.4333
51.8	78.257
52	69.6104
52.2	67.0293
52.4	74.6493
52.6	57.3694
52.8	94.791
53	130.442
53.2	145.982
53.4	109.242
53.6	251.7
53.8	349.75
54	130.729
54.2	123.822
54.4	137.17
54.6	75.611
54.8	78.7891
54.9	116.582