File: XRD_data/Mix2B-film.txt
#InstrumentID: BTX.359
#DatasetName: MixB
#SampleInfo:
#AcquisitionDate: 12/12/13 20:38:01
#IntegrationTime: 400 seconds
#GeometryParams: axisX = -68.5142 axisY = 134 axisZ = 1194.7 sensorAngle1 = -29.0823 sensorAngle3 = 0
#EnergyParams: splitThreshold = 12 CoKaPeak = 1280 kBFilterIn = 1
5	467.132
5.2	450.124
5.4	410.833
5.6	452.165
5.8	491.483
6	535.825
6.2	575.631
6.4	742.275
6.6	827.655
6.8	792.378
7	719.035
7.2	638.52
7.4	468.464
7.6	419.075
7.8	375.91
8	418.628
8.2	344.844
8.4	350.71
8.6	360.063
8.8	305.797
9	320.681
9.2	329.17
9.4	289.586
9.6	362.316
9.8	374.726
10	379.539
10.2	455.665
10.4	365.507
10.6	253.673
10.8	311.905
11	260.628
11.2	263.097
11.4	273.358
11.6	286.497
11.8	262.126
12	271.321
12.2	245.173
12.4	277.952
12.6	266.426
12.8	312.917
13	311.17
13.2	321.648
13.4	277.002
13.6	256.642
13.8	284.114
14	417.457
14.2	606.54
14.4	611.126
14.6	374.055
14.8	323.983
15	291.471
15.2	273.679
15.4	290.999
15.6	314.223
15.8	259.295
16	254.055
16.2	252.751
16.4	187.567
16.6	240.66
16.8	280.46
17	205.453
17.2	224.931
17.4	247.97
17.6	258.458
17.8	241.221
18	268.496
18.2	246.54
18.4	247.545
18.6	235.164
18.8	177.32
19	196.311
19.2	220.867
19.4	232.622
19.6	237.857
19.8	224.871
20	212.845
20.2	231.916
20.4	227.877
20.6	269.463
20.8	202.792
21	200.396
21.2	185.342
21.4	201.681
21.6	241.048
21.8	288.732
22	207.77
22.2	184.535
22.4	161.646
22.6	231.28
22.8	368.635
23	696.638
23.2	771.447
23.4	456.376
23.6	485.518
23.8	492.137
24	616.554
24.2	1705.42
24.4	1380.07
24.6	524.224
24.8	462.179
25	433.539
25.2	402.876
25.4	307.193
25.6	319.064
25.8	310.498
26	328.189
26.2	229.294
26.4	328.331
26.6	340.349
26.8	310.235
27	263.791
27.2	268.49
27.4	234.128
27.6	235.633
27.8	325.725
28	222.146
28.2	218.327
28.4	194.437
28.6	215.337
28.8	416.217
29	515.734
29.2	382.363
29.4	320.201
29.6	337.564
29.8	293.806
30	296.822
30.2	202.367
30.4	277.76
30.6	349.17
30.8	1480.1
31	7455.27
31.2	4333.5
31.4	531.612
31.6	269.409
31.8	225.164
32	188.762
32.2	261.107
32.4	318.002
32.6	283.037
32.8	228.943
33	203.002
33.2	129.342
33.4	207.664
33.6	214.283
33.8	172.709
34	203.594
34.2	157.086
34.4	165.551
34.6	202.222
34.8	209.609
35	201.124
35.2	186.176
35.4	137.25
35.6	144.773
35.8	152.587
36	142.488
36.2	137.86
36.4	198.198
36.6	178.432
36.8	126.626
37	126.081
37.2	195.332
37.4	212.566
37.6	165.96
37.8	186.319
38	178.894
38.2	112.746
38.4	119.805
38.6	162.738
38.8	86.7032
39	94.7355
39.2	142.396
39.4	130.132
39.6	105.87
39.8	135.426
40	136.546
40.2	147.971
40.4	237.821
40.6	275.055
40.8	486.072
41	461.291
41.2	205.189
41.4	260.092
41.6	206.806
41.8	257.52
42	294.973
42.2	296.528
42.4	213.618
42.6	600.038
42.8	617.057
43	263.071
43.2	144.456
43.4	128.966
43.6	150.902
43.8	172.512
44	189.752
44.2	224.387
44.4	183.097
44.6	135.919
44.8	274.448
45	319.079
45.2	270.997
45.4	166.438
45.6	196.645
45.8	164.161
46	409.548
46.2	779.706
46.4	325.349
46.6	99.1587
46.8	158.783
47	301.628
47.2	333.045
47.4	198.326
47.6	158.672
47.8	184.796
48	108.071
48.2	160.304
48.4	127.048
48.6	98.0811
48.8	144.364
49	121.839
49.2	163.877
49.4	168.758
49.6	371.705
49.8	382.524
50	163.576
50.2	125.032
50.4	57.9554
50.6	130.893
50.8	133.346
51	70.0856
51.2	84.4121
51.4	167.379
51.6	99.1998
51.8	101.788
52	59.5865
52.2	96.6538
52.4	109.568
52.6	104.714
52.8	102.193
53	79.0208
53.2	151.497
53.4	160.936
53.6	292.893
53.8	321.727
54	133.65
54.2	124.545
54.4	101.375
54.6	82.3787
54.8	127.558
54.9	117.631