File: XRD_data/Mix2A-film.txt
#InstrumentID: BTX.359
#DatasetName: Mix2A
#SampleInfo:
#AcquisitionDate: 12/12/13 20:20:31
#IntegrationTime: 400 seconds
#GeometryParams: axisX = -68.5142 axisY = 134 axisZ = 1194.7 sensorAngle1 = -29.0823 sensorAngle3 = 0
#EnergyParams: splitThreshold = 12 CoKaPeak = 1278 kBFilterIn = 1
5	674.055
5.2	601.797
5.4	685.273
5.6	730.239
5.8	864.358
6	912.074
6.2	1223.23
6.4	1617.92
6.6	1791.27
6.8	1672.14
7	1284.13
7.2	1142.22
7.4	847.46
7.6	676.899
7.8	545.481
8	495.001
8.2	429.337
8.4	408.825
8.6	408.521
8.8	387.226
9	413.175
9.2	367.252
9.4	367.179
9.6	373.101
9.8	399.999
10	465.556
10.2	518.338
10.4	425.191
10.6	435.932
10.8	359.753
11	334.984
11.2	404.356
11.4	362.533
11.6	286.181
11.8	317.139
12	268.869
12.2	301.534
12.4	272.395
12.6	352.486
12.8	306.416
13	339.036
13.2	332.485
13.4	275.143
13.6	312.272
13.8	322.029
14	488.446
14.2	680.893
14.4	806.517
14.6	541.116
14.8	346.766
15	329.357
15.2	280.066
15.4	306.349
15.6	317.911
15.8	317.702
16	252.701
16.2	370.168
16.4	299.232
16.6	289.066
16.8	338.167
17	332.552
17.2	242.389
17.4	310.019
17.6	243.654
17.8	338.395
18	225.74
18.2	218.714
18.4	242.54
18.6	303.897
18.8	254.999
19	200.006
19.2	290.338
19.4	255.124
19.6	265.562
19.8	264.93
20	293.97
20.2	311.58
20.4	295.843
20.6	353.943
20.8	307.363
21	268.183
21.2	251.914
21.4	247.978
21.6	188.529
21.8	267.841
22	218.984
22.2	186.648
22.4	259.745
22.6	297.181
22.8	473.875
23	967.736
23.2	1022.18
23.4	658.176
23.6	653.781
23.8	645.597
24	710.716
24.2	1189.79
24.4	904.548
24.6	592.052
24.8	666.442
25	675.347
25.2	642.11
25.4	641.475
25.6	566.474
25.8	467.604
26	453.631
26.2	400.228
26.4	490.067
26.6	539.745
26.8	474.452
27	379.416
27.2	346.543
27.4	352.487
27.6	443.667
27.8	450.596
28	387.876
28.2	352.352
28.4	257.94
28.6	311.75
28.8	496.457
29	651.587
29.2	507.907
29.4	370.645
29.6	434.083
29.8	412.612
30	267.078
30.2	327.711
30.4	293.115
30.6	409.077
30.8	1066.77
31	3999.16
31.2	2325.95
31.4	468.168
31.6	349.796
31.8	278.923
32	284.427
32.2	336.155
32.4	400.451
32.6	302.353
32.8	258.266
33	254.681
33.2	252.594
33.4	276.827
33.6	248.049
33.8	225.337
34	183.696
34.2	234.489
34.4	222.703
34.6	340.738
34.8	387.626
35	201.403
35.2	248.821
35.4	230.2
35.6	173.168
35.8	157.558
36	175.098
36.2	231.192
36.4	280.466
36.6	214.01
36.8	208.111
37	178.989
37.2	203.579
37.4	189.998
37.6	232.94
37.8	160.587
38	184.811
38.2	187.069
38.4	169.824
38.6	149.108
38.8	155.309
39	159.581
39.2	160.412
39.4	156.539
39.6	150.643
39.8	137.631
40	199.795
40.2	286.798
40.4	383.614
40.6	520.105
40.8	729.673
41	667.672
41.2	433.878
41.4	241.743
41.6	325.944
41.8	314.352
42	359.055
42.2	273.798
42.4	284.236
42.6	387.638
42.8	463.932
43	285.267
43.2	205.51
43.4	158.689
43.6	237.72
43.8	241.132
44	272.79
44.2	295.674
44.4	228.557
44.6	263.197
44.8	324.225
45	413.259
45.2	271.545
45.4	224.819
45.6	290.705
45.8	237.297
46	412.93
46.2	499.418
46.4	229.667
46.6	130.637
46.8	194.921
47	218.133
47.2	250.259
47.4	179.063
47.6	123.985
47.8	127.779
48	176.198
48.2	216.569
48.4	209.64
48.6	152.173
48.8	167.384
49	209.344
49.2	190.956
49.4	224.834
49.6	286.043
49.8	288.649
50	193.658
50.2	146.005
50.4	122.729
50.6	131.648
50.8	126.896
51	141.102
51.2	134.406
51.4	128.874
51.6	118.509
51.8	139.413
52	110.082
52.2	181.397
52.4	150.224
52.6	135.956
52.8	91.5649
53	144.031
53.2	202.367
53.4	210.1
53.6	195.633
53.8	203.406
54	149.296
54.2	118.853
54.4	115.03
54.6	122.691
54.8	158.02
54.9	176.975