File: XRD_data/Mix2C-film.txt
#InstrumentID: BTX.359
#DatasetName: Mix2C
#SampleInfo:
#AcquisitionDate: 12/12/13 21:00:36
#IntegrationTime: 400 seconds
#GeometryParams: axisX = -68.5142 axisY = 134 axisZ = 1194.7 sensorAngle1 = -29.0823 sensorAngle3 = 0
#EnergyParams: splitThreshold = 12 CoKaPeak = 1280 kBFilterIn = 1
5	549.186
5.2	551.293
5.4	618.172
5.6	547.9
5.8	672.816
6	835.701
6.2	1119.96
6.4	1354.83
6.6	1546.4
6.8	1447.63
7	1269.37
7.2	988.557
7.4	746.732
7.6	581.564
7.8	468.54
8	468.473
8.2	407.759
8.4	437.884
8.6	350.572
8.8	387.752
9	395.871
9.2	330.912
9.4	375.162
9.6	407.402
9.8	323.508
10	366.163
10.2	403.073
10.4	387.583
10.6	341.433
10.8	300.099
11	312.816
11.2	233.974
11.4	353.37
11.6	303.067
11.8	283.706
12	259.468
12.2	326.908
12.4	331.78
12.6	291.766
12.8	332.928
13	283.477
13.2	320.061
13.4	264.807
13.6	291.736
13.8	351.34
14	448.494
14.2	717.734
14.4	713.426
14.6	466.614
14.8	297.829
15	312.826
15.2	364.075
15.4	261.776
15.6	266.815
15.8	275.995
16	265.827
16.2	266.963
16.4	280.161
16.6	320.637
16.8	266.374
17	303.095
17.2	228.836
17.4	239.07
17.6	272.635
17.8	278.423
18	308.566
18.2	228.912
18.4	197.303
18.6	248.451
18.8	247.663
19	250.688
19.2	255.163
19.4	285.681
19.6	268.711
19.8	253.882
20	284.757
20.2	263.048
20.4	280.352
20.6	262.393
20.8	305.133
21	277.021
21.2	218.901
21.4	228.292
21.6	238.491
21.8	266.992
22	298.307
22.2	236.474
22.4	204.242
22.6	265.467
22.8	408.342
23	824.946
23.2	881.56
23.4	592.166
23.6	630.068
23.8	564.72
24	736.337
24.2	1290.21
24.4	1107.58
24.6	617.368
24.8	614.151
25	595.697
25.2	631.495
25.4	574.594
25.6	440.486
25.8	426.227
26	383.321
26.2	327.273
26.4	437.259
26.6	405.51
26.8	450.562
27	357.077
27.2	295.549
27.4	267.556
27.6	361.301
27.8	325.674
28	274.767
28.2	279.807
28.4	277.779
28.6	281.354
28.8	474.416
29	550.035
29.2	431.453
29.4	322.205
29.6	354.557
29.8	439.7
30	270.698
30.2	265.095
30.4	323.048
30.6	389.576
30.8	1110.82
31	5437.27
31.2	2866.2
31.4	453.412
31.6	273.067
31.8	225.981
32	316.222
32.2	238.73
32.4	353.615
32.6	270.778
32.8	235.461
33	232.844
33.2	269.116
33.4	240.252
33.6	199.284
33.8	211.714
34	172.504
34.2	226.877
34.4	258.568
34.6	215.806
34.8	234.038
35	239.45
35.2	154.718
35.4	137.445
35.6	142.953
35.8	164.921
36	200.529
36.2	158.279
36.4	170.683
36.6	212.526
36.8	160.151
37	135.705
37.2	179.663
37.4	211.153
37.6	155.756
37.8	130.501
38	163.05
38.2	162.754
38.4	114.525
38.6	115.188
38.8	98.8543
39	85.7912
39.2	136.929
39.4	161.168
39.6	165.421
39.8	159.485
40	158.644
40.2	173.103
40.4	286.657
40.6	372.19
40.8	624.033
41	516.384
41.2	334.135
41.4	287.584
41.6	290.8
41.8	296.41
42	353.498
42.2	326.52
42.4	262.616
42.6	588.452
42.8	587.574
43	247.116
43.2	198.154
43.4	158.761
43.6	168.341
43.8	201.529
44	259.199
44.2	275.626
44.4	184
44.6	252.828
44.8	328.705
45	306.15
45.2	287.799
45.4	195.731
45.6	210.554
45.8	232.03
46	455.512
46.2	518.25
46.4	226.781
46.6	192.083
46.8	187.123
47	239.111
47.2	343.884
47.4	166.427
47.6	131.937
47.8	102.288
48	129.893
48.2	145.168
48.4	178.189
48.6	126.386
48.8	144.885
49	159.1
49.2	184.575
49.4	224.879
49.6	317.163
49.8	343.731
50	188.73
50.2	111.435
50.4	106.976
50.6	121.347
50.8	97.9417
51	125.899
51.2	133.195
51.4	67.0141
51.6	138.463
51.8	144.64
52	74.9958
52.2	117.253
52.4	107.803
52.6	128.755
52.8	124.303
53	102.72
53.2	156.964
53.4	177.02
53.6	264.987
53.8	285.184
54	140.346
54.2	133.554
54.4	175.531
54.6	76.0811
54.8	152.48
54.9	155.558