File: XRD_data/Mix2D-film.txt
#InstrumentID: BTX.359
#DatasetName: Mix2D
#SampleInfo:
#AcquisitionDate: 12/12/13 21:48:22
#IntegrationTime: 400 seconds
#GeometryParams: axisX = -68.5142 axisY = 134 axisZ = 1194.7 sensorAngle1 = -29.0823 sensorAngle3 = 0
#EnergyParams: splitThreshold = 12 CoKaPeak = 1281 kBFilterIn = 1
5	733.648
5.2	712.803
5.4	679.986
5.6	692.813
5.8	784.693
6	928.365
6.2	1090.58
6.4	1506.65
6.6	1769.01
6.8	1750.74
7	1509.03
7.2	1294.99
7.4	1080.01
7.6	816.724
7.8	684.489
8	569.712
8.2	519.542
8.4	566.389
8.6	401.857
8.8	399.65
9	386.52
9.2	419.126
9.4	380.987
9.6	375.206
9.8	391.619
10	445.198
10.2	508.676
10.4	430.216
10.6	330.929
10.8	330.952
11	265.463
11.2	340.49
11.4	283.73
11.6	321.686
11.8	317.923
12	293.006
12.2	304.963
12.4	286.187
12.6	291.632
12.8	274.354
13	319.083
13.2	355.582
13.4	364.018
13.6	288.765
13.8	324.188
14	466.088
14.2	855.416
14.4	960.583
14.6	563.746
14.8	375.325
15	308.561
15.2	318.882
15.4	305.211
15.6	321.471
15.8	248.209
16	285.695
16.2	281.177
16.4	259.597
16.6	346.981
16.8	343.343
17	320.865
17.2	331.334
17.4	259.131
17.6	289.084
17.8	302.174
18	283.254
18.2	314.01
18.4	269.679
18.6	257.886
18.8	250.749
19	269.003
19.2	246.667
19.4	277.883
19.6	280.637
19.8	301.55
20	335.593
20.2	240.871
20.4	338.669
20.6	348.467
20.8	323.718
21	244.54
21.2	263.093
21.4	272.242
21.6	306.669
21.8	265.108
22	217.262
22.2	294.773
22.4	249.979
22.6	326.438
22.8	511.793
23	1100.79
23.2	1206.03
23.4	845.855
23.6	913.288
23.8	816.012
24	719.24
24.2	879.826
24.4	839.776
24.6	652.551
24.8	703.479
25	725.123
25.2	654.433
25.4	626.186
25.6	571.314
25.8	574.433
26	484.893
26.2	583.499
26.4	558.511
26.6	538.175
26.8	488.694
27	475.12
27.2	361.761
27.4	406.467
27.6	498.422
27.8	416.004
28	370.173
28.2	336.811
28.4	310.512
28.6	368.063
28.8	532.515
29	820.75
29.2	537.048
29.4	490.247
29.6	491.794
29.8	418.321
30	372.441
30.2	358.894
30.4	323.934
30.6	362.579
30.8	703.591
31	2302.4
31.2	1511.32
31.4	409.194
31.6	298.265
31.8	316.754
32	372.909
32.2	276.38
32.4	369.49
32.6	387.159
32.8	324.148
33	220.724
33.2	231.045
33.4	242.496
33.6	262.472
33.8	245.581
34	275.638
34.2	276.994
34.4	250.788
34.6	373.644
34.8	300.233
35	341.156
35.2	215.704
35.4	176.486
35.6	223.56
35.8	242.024
36	254.65
36.2	239.238
36.4	295.441
36.6	226.37
36.8	238.342
37	205.608
37.2	207.032
37.4	250.125
37.6	231.831
37.8	214.562
38	202.419
38.2	187.792
38.4	185.746
38.6	162.523
38.8	132.573
39	187.474
39.2	176.16
39.4	184.62
39.6	192.799
39.8	187.931
40	197.783
40.2	292.835
40.4	413.147
40.6	523.913
40.8	865.271
41	754.735
41.2	418.439
41.4	350.335
41.6	324.054
41.8	328.213
42	526.468
42.2	310.856
42.4	307.716
42.6	404.328
42.8	413.265
43	314.762
43.2	282.974
43.4	210.278
43.6	242.037
43.8	283.078
44	365.432
44.2	349.921
44.4	327.583
44.6	305.24
44.8	413.256
45	409.327
45.2	383.164
45.4	263.246
45.6	237.984
45.8	328.919
46	342.058
46.2	315.639
46.4	204.507
46.6	206.775
46.8	247.843
47	271.935
47.2	253.662
47.4	218.163
47.6	164.511
47.8	271.475
48	258.934
48.2	192.043
48.4	205.25
48.6	174.239
48.8	193.452
49	213.383
49.2	198.333
49.4	263.082
49.6	313.761
49.8	332.395
50	200.686
50.2	140.93
50.4	188.943
50.6	137.828
50.8	187.39
51	182.88
51.2	156.299
51.4	118.564
51.6	143.944
51.8	167.549
52	132.406
52.2	120.431
52.4	146.868
52.6	154.142
52.8	174.158
53	205.738
53.2	215.858
53.4	212.884
53.6	258.55
53.8	176.344
54	213.979
54.2	172.504
54.4	138.281
54.6	151.193
54.8	224.555
54.9	201.413