File: XRD_data/Mix3B-film.txt
#InstrumentID: BTX.359
#DatasetName: Mix3B
#SampleInfo:
#AcquisitionDate: 12/12/13 17:44:41
#IntegrationTime: 400 seconds
#GeometryParams: axisX = -68.5142 axisY = 134 axisZ = 1194.7 sensorAngle1 = -29.0823 sensorAngle3 = 0
#EnergyParams: splitThreshold = 12 CoKaPeak = 1294 kBFilterIn = 1
5	296.564
5.2	332.563
5.4	311.055
5.6	328.124
5.8	400.8
6	379.715
6.2	467.522
6.4	542.815
6.6	441.592
6.8	443.38
7	360.573
7.2	365.604
7.4	321.178
7.6	284.76
7.8	303.849
8	339.22
8.2	298.967
8.4	290.117
8.6	269.39
8.8	327.938
9	340.996
9.2	351.66
9.4	314.752
9.6	429.649
9.8	628.722
10	844.685
10.2	801.559
10.4	509.285
10.6	337.703
10.8	370.6
11	306.487
11.2	383.096
11.4	462.849
11.6	382.242
11.8	383.608
12	424.355
12.2	503.35
12.4	398.536
12.6	333.747
12.8	311.847
13	330.833
13.2	297.837
13.4	384.501
13.6	318.906
13.8	267.652
14	277.344
14.2	251.844
14.4	345.913
14.6	283.181
14.8	362.404
15	249.369
15.2	255.329
15.4	271.382
15.6	277.624
15.8	286.656
16	346.029
16.2	368.187
16.4	371.65
16.6	272.958
16.8	268.161
17	315.148
17.2	270.255
17.4	346.473
17.6	258.902
17.8	276.863
18	282.476
18.2	325.847
18.4	268.05
18.6	218.334
18.8	233.568
19	230.544
19.2	247.03
19.4	257.149
19.6	264.608
19.8	260.674
20	263.978
20.2	240.846
20.4	268.098
20.6	228.209
20.8	302.851
21	317.898
21.2	302.953
21.4	241.19
21.6	231.898
21.8	205.309
22	194.764
22.2	277.046
22.4	368.482
22.6	286.943
22.8	341.945
23	301.978
23.2	254.974
23.4	271.955
23.6	291.997
23.8	199.047
24	360.912
24.2	1573.17
24.4	992.85
24.6	277.05
24.8	175.297
25	237.302
25.2	260.388
25.4	329.08
25.6	550.606
25.8	500.864
26	250.256
26.2	287.981
26.4	191.127
26.6	262.58
26.8	226.559
27	270.366
27.2	238.787
27.4	419.224
27.6	225.671
27.8	220.649
28	391.01
28.2	515.421
28.4	369.952
28.6	198.123
28.8	165.345
29	221.986
29.2	214.246
29.4	162.727
29.6	272.698
29.8	203.694
30	192.884
30.2	247.384
30.4	390.357
30.6	579.669
30.8	1777.69
31	6464.88
31.2	2952.58
31.4	400.072
31.6	363.065
31.8	448.023
32	321.869
32.2	508.506
32.4	822.943
32.6	869.969
32.8	588.048
33	568.652
33.2	359.718
33.4	393.188
33.6	214.647
33.8	193.762
34	194.073
34.2	208.813
34.4	175.343
34.6	150.834
34.8	170.984
35	258.822
35.2	266.272
35.4	449.409
35.6	474.5
35.8	317.841
36	204.965
36.2	142.9
36.4	229.041
36.6	195.642
36.8	161.397
37	145.7
37.2	223.575
37.4	208.288
37.6	158.216
37.8	164.322
38	212.955
38.2	252.511
38.4	179.2
38.6	313.769
38.8	506.151
39	215.348
39.2	203.314
39.4	206.728
39.6	382.337
39.8	518.964
40	326.364
40.2	144.035
40.4	273.435
40.6	312.31
40.8	213.313
41	339.614
41.2	465.175
41.4	267.52
41.6	168.267
41.8	135.7
42	202.807
42.2	120.032
42.4	150.702
42.6	415.341
42.8	514.489
43	412.929
43.2	244.439
43.4	159.707
43.6	206.226
43.8	108.691
44	138.756
44.2	195.619
44.4	173.096
44.6	112.72
44.8	165.627
45	227.236
45.2	247.704
45.4	199.122
45.6	159.946
45.8	172.598
46	432.885
46.2	594.311
46.4	264.128
46.6	149.18
46.8	171.101
47	267.261
47.2	260.929
47.4	172.438
47.6	166.669
47.8	143.136
48	138.407
48.2	240.755
48.4	251.028
48.6	190.896
48.8	193.722
49	215.173
49.2	158.13
49.4	175.341
49.6	376.235
49.8	392.312
50	171.072
50.2	116.969
50.4	99.2028
50.6	109.769
50.8	87.7948
51	117.208
51.2	120.704
51.4	110.198
51.6	64.1597
51.8	107.13
52	179.223
52.2	159.015
52.4	170.813
52.6	169.852
52.8	200.216
53	197.934
53.2	125.817
53.4	145.998
53.6	252.249
53.8	305.857
54	124.94
54.2	80.1562
54.4	83.9388
54.6	127.267
54.8	109.764
54.9	90.1047