File: XRD_data/Mix4A_2-film.txt
#InstrumentID: BTX.359
#DatasetName: Mix4A_2
#SampleInfo:
#AcquisitionDate: 12/12/13 18:41:22
#IntegrationTime: 400 seconds
#GeometryParams: axisX = -68.5142 axisY = 134 axisZ = 1194.7 sensorAngle1 = -29.0823 sensorAngle3 = 0
#EnergyParams: splitThreshold = 12 CoKaPeak = 1294 kBFilterIn = 1
5	422.886
5.2	371.109
5.4	404.938
5.6	403.932
5.8	370.041
6	566.997
6.2	530.226
6.4	525.975
6.6	567.32
6.8	517.806
7	510.781
7.2	418.264
7.4	416.861
7.6	385.14
7.8	343.748
8	352.448
8.2	396.421
8.4	410.905
8.6	382.644
8.8	357.87
9	459.622
9.2	387.776
9.4	430.8
9.6	490.043
9.8	672.302
10	1079.71
10.2	1039.85
10.4	599.059
10.6	470.962
10.8	348.89
11	368.985
11.2	359.651
11.4	367.285
11.6	328.109
11.8	269.637
12	309.193
12.2	289.857
12.4	320.348
12.6	339.227
12.8	387.755
13	360.907
13.2	438.713
13.4	322.765
13.6	352.611
13.8	275.571
14	311.883
14.2	355.087
14.4	324.884
14.6	303.376
14.8	303.089
15	336.112
15.2	284.723
15.4	337.185
15.6	316.732
15.8	307.122
16	346.47
16.2	388.743
16.4	360.301
16.6	419.354
16.8	342.284
17	268.952
17.2	307.52
17.4	381.32
17.6	346.473
17.8	313.106
18	284.544
18.2	298.796
18.4	297.135
18.6	298.351
18.8	322.758
19	288.029
19.2	321.398
19.4	366.096
19.6	268.425
19.8	305.611
20	258.776
20.2	289.571
20.4	277.732
20.6	322.367
20.8	245.685
21	206.571
21.2	256.546
21.4	263.598
21.6	274.727
21.8	307.469
22	279.254
22.2	322.446
22.4	417.282
22.6	372.577
22.8	400.427
23	581.636
23.2	538.694
23.4	348.697
23.6	323.262
23.8	320.968
24	355.763
24.2	1009.82
24.4	785.983
24.6	303.103
24.8	307.839
25	283.23
25.2	305.921
25.4	337.497
25.6	799.997
25.8	540.652
26	324.134
26.2	274.802
26.4	297.939
26.6	319.981
26.8	378.139
27	291.469
27.2	330.312
27.4	413.143
27.6	383.947
27.8	353.848
28	515.319
28.2	615.143
28.4	452.11
28.6	244.405
28.8	279.023
29	269.471
29.2	227.938
29.4	377.311
29.6	434.736
29.8	402.715
30	323.785
30.2	354.302
30.4	468.175
30.6	574.792
30.8	1250.13
31	4041.35
31.2	2297.93
31.4	439.268
31.6	289.863
31.8	259.996
32	317.535
32.2	624.991
32.4	1006.69
32.6	1151.03
32.8	775.641
33	598.052
33.2	316.623
33.4	205.172
33.6	255.629
33.8	196.579
34	174.499
34.2	250.39
34.4	200.57
34.6	283.241
34.8	295.853
35	374.166
35.2	400.232
35.4	410.123
35.6	434.348
35.8	257.885
36	216.292
36.2	280.995
36.4	363.017
36.6	255.305
36.8	129.614
37	199.109
37.2	180.929
37.4	241.51
37.6	199.074
37.8	167.609
38	168.34
38.2	228.193
38.4	234.817
38.6	157.213
38.8	164.97
39	169.837
39.2	201.717
39.4	293.933
39.6	461.359
39.8	791.831
40	447.101
40.2	295.761
40.4	292.345
40.6	378.405
40.8	614.789
41	395.546
41.2	308.562
41.4	177.222
41.6	196.414
41.8	209.745
42	191.093
42.2	147.371
42.4	188.773
42.6	427.224
42.8	696.875
43	588.612
43.2	408.725
43.4	228.363
43.6	189.697
43.8	191.981
44	262.627
44.2	247.699
44.4	197.306
44.6	143.817
44.8	172.016
45	132.002
45.2	166.34
45.4	206.108
45.6	216.133
45.8	181.436
46	268.652
46.2	420.477
46.4	272.416
46.6	165.482
46.8	194.882
47	238.025
47.2	240.487
47.4	202.355
47.6	182.974
47.8	133.326
48	219.215
48.2	294.291
48.4	378.129
48.6	267.25
48.8	225.987
49	181.589
49.2	244.238
49.4	178.741
49.6	349.745
49.8	359.733
50	154.206
50.2	164.583
50.4	106.805
50.6	140.148
50.8	144.47
51	166.623
51.2	122.672
51.4	100.188
51.6	158.575
51.8	145.321
52	86.2125
52.2	200.732
52.4	180.899
52.6	143.362
52.8	210.71
53	206.142
53.2	249.43
53.4	193.464
53.6	244.684
53.8	261.028
54	170.753
54.2	88.8648
54.4	108.61
54.6	119.03
54.8	113.356
54.9	174.071